A_X [mg] A_Y [mg] A_Z [mg] G_X [dps] G_Y [dps] G_Z [dps] 
-150.875	-124.145	1062.65	4.4181	-2.4603	-1.4858
-141.008	-137.66	1011.4	2.74	-1.9446	-1.3809
-159.487	-116.311	1055.77	3.9942	-1.2892	-1.4071
-123.427	-125.7	1018.93	2.6176	-0.9658	-1.4727
-165.706	-105.607	1008.11	3.2994	-0.7429	-1.3722
-136.344	-111.108	1034.18	3.3999	-0.2447	-1.3285
-132.816	-113.56	1035.8	3.4829	0.2709	-1.4115
-145.075	-138.138	967.743	2.0714	0.3977	-1.4377
-123.068	-114.098	981.737	2.7575	0.5943	-1.4334
-128.929	-66.7966	936.408	2.9847	1.1406	-1.3591
-143.4	-129.826	906.927	2.657	0.4545	-1.2586
-149.56	-108.118	956.381	4.0554	0.6905	-1.2454
-126.955	-68.471	997.643	4.3481	0.9177	-1.311
-122.231	-127.852	929.711	2.5696	0.7385	-1.2498
-142.982	-92.5106	938.023	3.2207	0.0131	-1.2629
-158.649	-68.5906	953.93	3.4785	-0.354	-1.3372
-152.37	-97.0554	965.292	3.6009	-0.6074	-1.3634
-161.281	-79.534	956.621	3.7276	-0.5506	-1.3416
-153.925	-94.0056	975.039	3.7713	-0.354	-1.4246
-137.42	-80.3114	1013.61	4.1559	-0.8303	-1.512
-162.776	-107.999	945.079	3.2207	-1.2061	-1.5645
-161.819	-85.6336	1014.03	4.2302	-1.7393	-1.6256
-158.111	-81.6868	978.747	3.3911	-1.2586	-1.8529
-163.792	-92.69	1038.55	3.8063	-1.949	-1.9228
-147.586	-101.54	1007.81	2.9235	-1.5557	-2.1369
-156.975	-87.4874	1037.65	3.3168	-1.4596	-2.3423
-139.872	-125.939	1021.09	2.3817	-2.0495	-2.4953
-150.337	-98.969	1024.43	2.6351	-1.6868	-2.7181
-151.952	-93.587	1011.58	2.2549	-1.5295	-3.0066
-136.882	-111.467	976.594	1.8398	-1.0401	-3.2076
-156.138	-86.9492	1016.48	3.2076	-1.1143	-3.3168
-115.593	-134.55	956.142	2.4953	-0.8653	-3.614
-133.593	-125.341	988.793	3.2688	-0.6948	-3.8281
-112.185	-151.593	970.494	2.3467	-0.9395	-3.9548
-101.361	-138.018	1014.15	2.9497	-0.8303	-4.0859
-105.009	-141.427	969.418	1.8922	-0.673	-4.169
-106.683	-150.218	949.684	1.6256	-0.8172	-4.0991
-132.038	-136.464	1041.54	2.6526	-0.6774	-4.1471
-84.1386	-166.902	1019.77	0.7735	-0.839	-4.1821
-92.9292	-144.477	940.176	0.4108	-0.6336	-4.0772
-132.696	-130.364	987.956	1.3066	-1.0095	-4.0641
-106.743	-156.796	966.846	0.9964	-0.4851	-4.0991
-113.142	-163.553	887.791	0.5375	-0.0393	-3.9942
-97.9524	-141.367	929.89	2.1326	-1.0051	-3.9461
-96.0986	-155.659	921.697	2.0452	-0.3977	-3.9811
-93.587	-154.105	951.538	2.2768	-1.0575	-3.9374
-130.364	-175.453	949.265	1.1799	-1.2149	-3.9548
-128.151	-129.587	1033.28	2.1588	-1.7917	-4.0597
-115.294	-154.583	952.076	0.555	-2.1981	-4.0248
-154.105	-153.865	970.195	0.6642	-2.1238	-4.1209
-148.663	-139.394	988.614	1.0007	-2.4953	-4.2476
-145.135	-169.174	1013.85	0.791	-2.4166	-4.4574
-131.321	-175.573	997.285	0.5725	-2.2549	-4.6409
-157.633	-179.759	913.684	0.0393	-2.5608	-4.7546
-130.364	-171.985	974.022	1.4334	-2.657	-5.0911
-144.357	-191.719	1035.08	1.7305	-2.6526	-5.3489
-140.41	-182.629	943.225	0.472	-2.0495	-5.563
-139.633	-193.692	1003.09	1.7961	-2.2374	-5.8951
-118.404	-216.596	1059.42	1.9009	-2.2025	-6.3103
-122.411	-223.891	979.524	0.5899	-1.984	-6.6468
-76.7832	-217.074	960.089	0.4195	-2.9017	-6.9483
-122.71	-222.875	1047.34	1.276	-2.7618	-7.276
-114.637	-245.3	970.195	-0.4414	-2.5171	-7.464
-90.8362	-242.668	944.302	-0.1355	-2.6526	-7.6519
-118.344	-222.934	1004.82	1.394	-2.4297	-7.9359
-63.5674	-258.216	964.753	1.2848	-1.8179	-8.2506
-72.5972	-262.103	949.385	2.3379	-1.63	-8.4865
-72.5374	-303.784	960.149	2.2068	-1.7436	-8.6963
-44.3716	-275.2	1042.02	3.614	-1.7917	-8.8405
-43.2354	-262.402	961.345	2.22	-1.9228	-8.8842
-55.5542	-277.113	938.8	2.3161	-2.6657	-9.0022
-81.8662	-269.578	966.607	2.5259	-2.6395	-9.2819
-53.4612	-266.11	1003.56	2.6001	-2.8099	-9.6446
-42.2188	-267.904	1067.01	2.7881	-2.3598	-9.9898
-42.5776	-289.91	1051.94	1.8398	-2.0277	-10.1253
-42.5776	-294.754	1026.05	1.6387	-1.5645	-10.2826
-31.2754	-304.442	1022.4	1.831	-1.3722	-10.4137
-37.2554	-304.442	1059.66	1.311	-1.3066	-10.5623
-19.8536	-303.126	971.69	0.0218	-1.0969	-10.6366
-25.8336	-292.601	959.491	0.5987	-0.9308	-10.9119
-45.448	-277.891	959.491	0.7036	-1.3809	-11.1129
-23.6808	-284.11	952.076	0.7385	-1.4071	-11.3314
-24.0994	-293.08	927.438	1.2629	-1.2061	-11.6723
-41.6208	-300.375	920.143	1.7436	-1.7567	-11.9782
-13.8736	-301.392	924.149	2.2462	-2.0714	-12.1704
-26.9698	-317.239	977.85	1.9315	-2.102	-12.3278
0.1196	-310.123	946.156	2.9497	-2.5521	-12.7036
-5.382	-286.143	965.89	2.4385	-2.775	-13.0139
-17.4018	-361.371	983.59	2.622	-2.7094	-13.2367
-3.887	-315.684	999.916	2.0058	-3.5747	-13.3809
16.9832	-325.731	973.903	3.1857	-3.2556	-13.6257
-9.4484	-319.571	1002.55	3.1202	-3.7713	-13.8616
23.7406	-344.807	1043.09	2.1369	-2.6919	-13.9971
7.4152	-349.053	1051.28	1.5863	-2.5564	-14.1588
34.086	-359.876	1001.89	2.6832	-2.3117	-14.2943
22.9632	-330.096	1065.58	2.1413	-2.3685	-14.3249
36.1192	-373.81	1029.4	1.2979	-1.1012	-14.5739
10.2856	-368.248	955.664	3.1551	-1.9971	-14.7007
31.0362	-337.272	1074.25	3.1551	-0.9264	-14.7881
36.2986	-396.295	1031.49	1.1318	-0.5506	-14.9804
44.0128	-336.495	1093.62	2.9148	0.4457	-14.9935
58.3648	-370.581	893.233	0.3933	0.4457	-15.2032
22.5446	-342.355	935.571	2.4516	0.3715	-15.4829
11.1228	-391.271	905.731	1.5339	0.1442	-15.5965
36.5378	-333.445	992.74	3.3693	0.2666	-15.5965
55.7934	-378.773	971.69	2.1107	1.0226	-15.8981
54.9562	-368.846	1004.46	2.9672	0.2928	-16.1908
63.687	-384.933	956.262	1.4858	0.1398	-16.2782
17.5812	-360.594	960.448	1.7698	-0.284	-16.4225
52.325	-362.807	926.9	1.276	-0.4807	-16.5404
37.973	-349.292	921.518	2.2593	-0.7691	-16.6235
46.644	-366.395	899.571	2.6264	-1.1012	-16.8026
53.9994	-362.567	895.326	3.2906	-1.4203	-17.008
46.8234	-389.178	967.504	4.5273	-1.5688	-17.2353
59.0824	-387.683	975.099	4.0728	-1.3416	-17.3664
84.6768	-395.158	1010.56	3.5397	-2.0932	-17.2659
96.6368	-396.534	1046.32	2.9803	-3.0503	-17.1959
62.4312	-373.989	1041.3	1.8878	-3.1945	-17.1042
91.2548	-366.813	965.591	0.1748	-3.5878	-17.2571
73.0756	-320.648	977.491	0.5288	-4.0204	-17.3882
73.0756	-317.598	1015.88	0.4195	-4.0379	-17.6373
101.78	-321.186	1034.72	1.11	-3.4741	-17.8383
104.949	-351.983	998.72	0.9221	-3.3562	-17.9388
116.49	-331.113	997.404	1.3023	-2.5259	-18.1049
127.374	-359.757	970.674	1.0706	-2.6744	-18.2098
113.74	-352.162	1015.64	1.9709	-3.094	-18.3715
127.673	-381.046	963.079	0.5025	-3.531	-18.4108
90.7166	-336.435	1012.06	2.0058	-2.9454	-18.5463
115.055	-386.368	980.78	1.3197	-3.3867	-18.6337
95.4408	-359.458	1011.94	2.185	-2.8929	-18.8434
127.673	-386.129	966.069	1.311	-2.8449	-19.1668
136.344	-351.385	1034.12	2.2243	-2.8143	-19.3329
160.025	-373.69	978.029	1.1886	-2.8143	-19.4115
150.995	-344.687	1008.23	2.4079	-2.6001	-19.4378
143.879	-366.753	934.495	1.7698	-2.0495	-19.4509
147.048	-365.258	985.564	3.2556	-2.2462	-19.6388
161.041	-378.474	1018.87	3.4698	-1.8267	-19.8354
157.214	-364.84	1055.59	4.169	-1.276	-19.8922
163.194	-412.142	1050.45	2.858	-1.2017	-19.949
135.028	-396.235	996.986	2.4385	-0.909	-19.9185
157.035	-401.736	988.374	2.1326	-0.6686	-19.8791
138.377	-364.78	993.039	2.1675	-1.11	-19.9359
122.052	-403.231	991.962	1.3023	-1.3372	-19.9665
144.417	-372.614	1004.52	1.1449	-1.2979	-20.0714
124.384	-348.156	992.62	0.839	-0.909	-20.2418
147.048	-379.491	1001.83	1.5994	-1.0925	-20.4079
151.354	-359.398	980.182	1.6519	-0.0655	-20.4385
143.221	-376.142	921.937	1.7655	0.118	-20.5477
171.746	-366.813	927.737	2.0452	-0.3715	-20.7313
152.849	-391.451	944.541	1.9534	-0.9964	-20.823
134.729	-341.578	988.255	2.622	-1.1275	-20.7881
156.975	-414.892	935.99	0.8784	-1.3853	-20.7488
126.597	-374.228	976.056	1.9272	-1.2979	-20.9104
152.789	-382.301	972.767	1.2586	-1.783	-21.1333
139.334	-373.511	1032.75	1.3765	-1.9534	-21.094
152.61	-390.434	957.278	-0.2054	-1.311	-21.1377
170.609	-345.883	992.74	0.8696	-1.3023	-21.0984
193.991	-367.172	908.96	-0.4632	-1.1537	-21.1202
176.709	-327.226	1020.49	1.4552	-1.4115	-21.1246
170.55	-309.585	879.778	-0.1136	-0.8259	-20.8405
197.161	-348.215	902.203	3.8718	2.421	-20.0583
219.107	-403.052	1035.38	6.0699	4.1821	-20.1763
273.705	-414.175	1024.61	2.2506	0.5768	-20.2812
295.053	-352.82	894.189	1.1231	-1.9359	-19.7699
157.274	-344.627	969.777	1.5645	-0.6118	-19.1581
69.9062	-339.963	938.98	0.8259	-0.839	-19.4203
236.808	-305.817	919.545	0.791	-3.496	-20.0059
252.356	-288.535	959.73	1.8179	-4.1428	-19.9359
112.544	-293.259	957.278	1.4596	-4.2389	-20.0714
107.461	-296.309	975.338	1.7174	-3.9811	-20.7138
199.194	-287.698	836.781	2.4122	-3.6489	-21.3212
102.138	-107.281	777.878	5.1828	-0.9658	-21.7058
188.37	-356.109	1078.25	8.8056	-5.1304	-21.8806
239.499	-340.92	1143.26	6.52	-4.4661	-22.4094
195.187	-348.634	1045.48	6.1486	-0.957	-22.488
340.74	-395.697	1011.88	4.3263	-2.9148	-22.5405
314.967	-414.773	1171.72	4.8725	-5.5324	-21.6096
235.253	-377.218	1116.53	2.8186	-3.9199	-21.3212
290.867	-389.298	1058.94	0.8347	-3.1071	-21.0634
226.104	-339.305	1030.89	0.9308	-4.2258	-20.4909
225.147	-329.737	1077.54	1.3328	-2.7793	-20.3904
244.642	-358.86	1064.68	2.0408	-1.6956	-20.3336
221.32	-331.89	1042.37	1.4334	-1.2498	-20.2069
243.565	-332.548	1044.47	1.3809	-1.4071	-20.0976
211.692	-308.807	955.544	1.1056	-0.1224	-20.0233
200.45	-318.614	961.584	2.0976	0.2578	-19.9359
219.167	-302.11	954.946	2.4822	-0.0306	-20.0627
215.818	-303.306	957.099	2.4385	-0.2098	-20.0627
189.686	-299.12	929.292	2.9366	1.0575	-20.2943
202.423	-305.399	1017.26	3.9068	1.0838	-20.421
212.768	-326.927	923.611	2.4734	0.7691	-20.5477
197.4	-294.993	912.608	3.531	1.3503	-20.7444
235.074	-304.741	957.099	4.2957	0.6555	-20.6701
207.984	-334.641	941.073	3.6402	1.5251	-20.504
227.3	-322.202	1003.62	4.6016	1.0532	-20.6264
225.745	-325.013	976.355	3.5135	1.4028	-20.8362
219.346	-317.299	1008.23	3.3911	0.1311	-20.7968
211.393	-297.983	972.527	2.0408	-0.236	-20.657
193.453	-281.778	925.226	2.7706	0.5987	-20.657
182.689	-315.565	905.492	3.5528	1.665	-20.74
234.416	-311.379	979.404	4.8157	0.1442	-20.8493
229.931	-312.455	1007.93	3.8631	0.0437	-21.0415
214.084	-328.541	959.132	2.9629	-0.3758	-21.011
200.21	-285.904	920.621	3.4261	-0.2141	-20.7968
204.038	-311.558	939.877	4.5448	-0.3321	-20.7706
206.908	-290.867	990.288	5.6635	-1.0663	-20.8886
231.247	-330.574	946.933	4.1996	-0.8259	-20.9148
196.443	-294.993	1065.52	5.9345	-0.9133	-20.9367
230.888	-324.475	986.461	3.7232	-1.0532	-20.9804
209.24	-307.133	993.517	4.5885	-0.4938	-20.9978
202.842	-301.571	1006.79	4.1865	-1.8616	-20.8405
218.449	-291.226	1022.34	3.3911	-1.9272	-20.7488
197.938	-298.402	1019.71	3.3081	-0.9701	-20.7575
220.602	-306.056	1056.37	3.4173	-1.2673	-20.858
218.39	-302.468	1077.54	2.8055	-1.1318	-20.8143
190.702	-323.518	1098.77	2.102	-1.1318	-20.7269
211.034	-291.824	1019.59	0.8784	-0.8521	-20.6963
205.114	-268.024	959.551	0.8609	-0.52	-20.6614
178.623	-304.023	970.733	1.6344	-0.0918	-20.5477
199.254	-308.269	946.873	1.665	-0.402	-20.6482
193.393	-262.522	954.587	1.2454	-1.0969	-20.7575
222.576	-300.076	947.89	1.2454	-2.0364	-20.6788
165.287	-268.681	996.388	2.3074	0.0087	-20.7138
205.174	-287.997	964.155	1.7305	-0.6293	-20.8187
223.174	-320.767	920.322	1.2586	-1.4203	-20.823
186.038	-289.552	944.84	2.032	-1.3503	-20.8449
203.858	-308.03	990.647	2.0189	-2.0976	-20.8973
227.659	-290.449	977.132	1.3328	-2.5914	-20.8711
189.446	-312.395	938.142	1.1231	-2.4253	-20.7968
199.493	-283.99	945.797	1.9403	-3.0503	-20.7706
204.038	-272.927	1012.47	3.295	-3.6315	-20.6264
221.918	-322.8	1019.77	3.0983	-2.9629	-20.6876
198.955	-305.399	982.394	2.1937	-1.3197	-20.8842
259.951	-309.764	948.308	1.9883	-2.8886	-20.6133
231.067	-309.704	949.325	2.3379	-3.6926	-20.22
201.167	-307.312	986.64	3.3693	-3.1158	-20.3467
225.685	-293.498	992.142	3.0677	-3.5484	-20.2331
218.928	-322.322	1022.64	2.1107	-4.4006	-20.0583
199.911	-254.329	1103.85	2.8318	-4.3176	-20.0889
208.403	-307.551	1007.45	1.1886	-4.0423	-20.1457
202.722	-286.562	1132.31	3.2994	-4.4792	-20.0801
215.878	-304.442	1070.54	1.7567	-3.6795	-20.0059
191.181	-248.469	937.126	1.4508	-1.8835	-19.9578
234.416	-285.425	868.535	2.1937	-2.6744	-19.8835
203.26	-295.771	1034.72	5.3926	-2.2025	-20.0146
224.788	-314.608	1080.71	4.2389	-1.4203	-20.0714
215.34	-325.432	1068.21	2.5215	-1.8223	-19.866
240.097	-255.167	1003.09	2.6264	-1.7611	-19.8267
197.22	-317.179	1041.96	1.8267	-0.5637	-19.8092
189.147	-286.562	992.62	2.3423	-1.9752	-19.7961
213.964	-301.512	1107.5	2.22	-1.9315	-20.0364
184.005	-251.339	1036.87	1.4902	-1.7174	-19.9665
224.669	-313.591	915.598	-0.0218	-2.2112	-19.7874
167.739	-242.609	996.268	4.3787	-0.4457	-19.9534
242.011	-302.648	942.867	3.6839	0.0437	-20.2462
205.293	-306.953	913.804	4.4443	0.0087	-20.102
249.665	-316.163	905.791	4.7371	-0.9701	-20.0714
222.576	-294.993	1026.23	5.8034	-1.3765	-20.0801
209.958	-323.996	950.88	3.5921	-1.8616	-20.0408
225.745	-288.535	926.242	3.7058	-2.6919	-19.901
207.207	-269.578	1026.65	5.1129	-4.4487	-19.7786
190.882	-301.332	1023.9	4.0641	-3.2862	-20.0059
202.303	-284.708	1078.25	4.7065	-3.0983	-20.0496
215.28	-311.797	1096.79	4.0117	-2.3991	-20.019
211.154	-283.332	1090.99	5.0124	-1.6169	-20.0496
239.977	-290.09	949.684	2.5608	-2.2418	-19.9534
236.569	-298.94	952.674	3.2906	-3.4523	-19.5689
179.639	-260.07	989.81	5.4625	-0.0874	-19.2761
219.586	-321.784	998.301	4.6497	-0.4676	-19.2979
211.752	-292.063	1081.18	5.6242	-1.4639	-19.582
221.439	-283.93	1187.27	4.8551	-1.6125	-19.5557
187.234	-274.303	1056.85	2.5914	-0.4851	-19.3853
174.496	-306.654	937.784	1.595	1.1362	-19.6257
216.536	-276.276	982.813	2.6832	-0.9046	-19.6344
181.672	-273.824	1026.29	2.1806	-1.9097	-19.7524
166.244	-229.931	1122.33	2.0714	-2.5521	-19.984
151.115	-271.432	1020.19	-0.0743	-0.9046	-20.1981
177.068	-240.994	1026.35	1.4159	-0.6118	-20.5477
183.945	-266.828	873.14	0.118	0.52	-21.0372
204.576	-276.695	920.202	2.4428	-0.8434	-21.0503
217.014	-298.821	930.787	1.5994	-1.9578	-20.8012
184.662	-296.488	1042.55	4.0248	0.2185	-20.9891
236.09	-295.711	968.222	2.7924	0.5725	-21.1683
226.223	-316.761	822.669	1.4377	-0.3321	-21.0809
208.582	-277.113	987.537	4.4749	-1.075	-21.0328
233.1	-321.186	1062.17	3.8063	-1.0881	-21.059
206.131	-322.92	1034.72	1.6956	-1.5382	-20.9891
230.29	-309.166	904.236	0.2535	-1.5339	-21.059
219.526	-241.353	959.312	2.4647	-1.831	-20.8711
196.921	-333.983	995.909	1.5819	-3.0808	-20.7837
184.244	-256.183	956.8	3.024	-1.3678	-20.858
261.087	-327.704	1016.3	3.5528	-0.8259	-20.9367
204.217	-287.1	996.567	3.378	-0.8871	-20.8886
245.539	-326.209	882.947	1.6169	-2.0364	-20.7313
222.755	-277.472	988.255	3.8106	-2.4996	-20.5171
185.38	-289.731	1038.01	3.4567	-2.1151	-20.5215
248.17	-309.704	960.089	2.5477	-2.2287	-20.456
207.626	-264.077	965.411	2.4822	-1.984	-20.3555
230.768	-319.212	999.497	2.9366	-2.8361	-20.5477
194.47	-276.635	1038.13	3.1158	-2.0364	-20.504
207.267	-293.379	1013.49	2.3336	-2.2418	-20.456
212.828	-275.977	1080.53	3.7101	-0.8827	-20.4385
236.569	-277.412	1043.33	2.7662	-0.4763	-20.504
218.39	-331.232	920.143	0.5244	-1.311	-20.3686
200.151	-252.296	1035.56	3.5178	-1.4989	-20.4909
224.37	-279.924	1087.4	2.6439	-0.9745	-20.6439
208.881	-303.664	1000.75	0.4064	-0.9002	-20.6657
220.722	-248.11	1005.66	0.6774	-0.9483	-20.5652
213.665	-273.944	916.913	0.284	-0.3365	-20.5084
198.536	-263.838	957.936	2.1151	0.2622	-20.6308
222.277	-310.302	954.169	1.9184	0.153	-20.6351
219.705	-266.409	975.039	3.2251	1.2367	-20.7313
244.283	-319.691	997.883	2.3117	0.7167	-20.7968
220.901	-282.017	907.704	1.7742	0.555	-20.5652
225.087	-280.103	937.604	2.9235	0.3715	-20.4866
217.971	-288.655	1045.84	4.4224	0.7604	-20.5434
233.938	-278.13	952.674	2.6788	1.2673	-20.4866
227.599	-301.631	895.385	2.067	0.839	-20.4909
214.383	-282.196	955.903	2.6613	-0.2709	-20.7051
213.426	-251.818	932.76	2.2287	-0.6861	-20.8624
208.283	-261.147	895.385	1.7305	-0.8041	-20.7225
197.519	-256.482	956.74	3.1683	-0.5157	-20.6045
219.645	-288.774	1002.25	3.3299	-0.2054	-20.7182
238.722	-297.684	961.464	2.775	-0.6774	-20.7881
226.044	-278.548	1016.9	3.3911	-1.3853	-20.9629
223.413	-279.087	982.036	2.3948	-1.0969	-20.9978
221.679	-282.316	978.507	2.5739	-0.6249	-20.6526
244.104	-273.286	956.501	2.9235	-0.3146	-20.3686
230.35	-282.196	904.355	3.0634	0.0218	-20.4254
233.16	-294.635	1005.78	4.3088	-0.6031	-20.4123
212.469	-281.299	1002.79	2.941	-0.153	-20.3074
231.067	-282.256	969.059	2.4122	-0.1792	-20.4385
222.695	-263.12	973.185	2.6001	-0.2403	-20.4734
244.642	-246.197	985.384	2.7225	-1.0619	-20.2593
218.39	-258.695	1036.39	2.6875	-1.0663	-20.2506
237.585	-256.602	1016.06	2.3991	-1.11	-20.2812
227.479	-242.19	981.557	1.9752	-0.472	-20.3467
238.303	-245.24	910.933	2.2986	-1.0794	-20.4123
231.366	-227.061	985.504	4.5361	-0.555	-20.5434
230.35	-286.382	975.218	3.8063	-0.6293	-20.4123
246.914	-252.595	965.351	4.0816	-0.5812	-20.3423
247.811	-262.462	926.003	3.2294	-0.5594	-20.3555
230.409	-257.618	999.617	4.1165	-1.5033	-20.2287
221.14	-264.675	993.876	2.7225	-1.547	-20.2025
224.19	-248.23	1046.56	3.1814	-1.547	-20.2986
236.449	-262.283	1006.67	1.6737	-1.3416	-20.3118
236.21	-241.771	1012.71	1.7742	-1.5863	-20.1894
214.503	-246.914	987.836	1.4552	-0.8347	-20.0627
232.383	-271.432	1047.94	2.6264	-0.2928	-19.949
244.881	-255.884	1015.88	2.2506	0.7822	-19.8529
249.486	-261.804	973.544	1.7524	0.8347	-19.7262
245.479	-250.801	980.78	1.9446	0.6162	-19.6257
230.649	-245.957	949.803	1.5164	0.6905	-19.4858
228.795	-246.197	909.319	1.2586	0.3715	-19.3067
224.25	-243.864	950.222	1.7087	-0.1879	-19.1843
216.476	-235.074	925.405	1.63	-0.3977	-19.0663
236.09	-235.014	932.701	1.949	-0.7997	-19.0663
217.134	-235.851	982.454	2.2986	-1.1624	-19.1275
219.167	-241.951	928.814	1.1318	-1.4639	-19.0576
201.945	-214.144	940.833	1.8048	-1.4115	-18.9702
206.968	-235.971	941.252	2.5564	-2.2156	-18.874
221.021	-222.336	955.365	3.0066	-1.9141	-18.7735
228.376	-238.722	976.713	3.3736	-2.0189	-18.7866
219.526	-246.974	988.494	3.0896	-2.1413	-18.7473
227.659	-236.509	993.398	3.3256	-2.6963	-18.6992
217.014	-241.233	964.813	2.976	-2.7575	-18.6512
223.592	-235.732	1072.51	4.2782	-2.9716	-18.5244
235.313	-250.502	1038.61	2.469	-2.6526	-18.3758
223.054	-207.566	1028.98	2.5783	-2.3248	-18.3365
220.722	-246.974	963.797	1.4334	-2.4079	-18.3016
204.456	-223.174	1057.86	2.858	-2.3336	-18.3802
216.596	-231.904	1023.3	1.3241	-2.0583	-18.3671
224.25	-218.629	1054.93	1.9709	-1.3809	-18.2972
224.37	-238.662	1016.12	0.8609	-1.0663	-18.2273
233.34	-233.878	984.607	0.9264	-0.9439	-18.1573
210.376	-232.801	991.305	1.5164	-0.957	-18.1355
227.958	-233.818	1014.63	1.8354	-1.0488	-18.0481
218.748	-230.409	984.966	1.8048	-0.201	-18.118
247.512	-238.004	953.152	1.4727	-0.0918	-18.1136
213.665	-225.027	944.063	1.9446	-0.4414	-18.0918
221.021	-228.257	873.319	1.2542	-1.0575	-18.1355
192.018	-207.386	907.644	2.5084	-1.1886	-18.0787
228.615	-233.818	948.966	3.2644	-1.0881	-18.0525
205.174	-225.805	1001.17	3.7844	-0.2753	-18.1573
249.067	-249.844	928.156	2.5914	-0.9352	-18.2316
215.579	-221.2	1013.97	4.405	-0.9527	-18.354
211.273	-262.941	1022.46	3.0415	-1.2935	-18.2928
241.472	-229.572	1046.92	3.4785	-1.0794	-18.201
233.34	-246.675	963.258	1.8966	-1.0357	-18.1442
205.473	-219.287	990.168	3.1683	-1.6038	-18.1967
221.619	-229.213	973.305	2.2506	-2.0058	-18.271
210.077	-221.738	986.461	2.8973	-2.1588	-18.3584
221.26	-228.675	981.079	2.9585	-1.8966	-18.3846
217.971	-243.446	983.112	3.3955	-1.7305	-18.3453
238.602	-227.599	933.897	3.8806	-1.276	-18.2666
239.738	-233.34	1078.49	5.8208	-1.7261	-18.2884
217.851	-275.678	933.717	2.8274	-0.8128	-18.2666
250.921	-249.665	970.674	5.0342	-1.3066	-18.2273
228.137	-222.875	1057.62	5.4013	-1.1755	-18.0831
246.496	-279.864	1003.5	3.9243	-1.7567	-18.1049
219.526	-211.513	1033.22	4.3875	-0.9002	-18.0306
240.456	-255.167	1007.81	3.1683	-1.9141	-17.9476
200.629	-240.217	1121.13	4.2345	-1.5732	-18.0525
222.456	-212.709	973.125	1.8616	-1.5601	-18.0831
216.536	-243.386	997.823	2.7138	-1.2149	-18.0612
194.35	-165.048	1117.48	4.7546	-0.472	-18.2185
247.692	-254.987	855.977	0.3802	-0.5157	-18.2841
203.32	-239.619	1011.58	4.0117	-0.8303	-18.3802
221.619	-215.22	1022.76	3.6227	-0.5725	-18.4327
235.672	-246.555	992.142	2.7706	-0.4982	-18.354
239.32	-245.18	1011.7	3.7145	-0.0087	-18.319
236.27	-237.825	983.83	3.3999	-0.0918	-18.3278
230.051	-253.672	1015.7	3.6096	-0.4807	-18.3627
236.21	-235.074	946.514	2.4341	-0.2491	-18.2972
223.712	-229.692	962.9	3.1945	-0.7123	-18.2535
222.516	-227.12	993.637	3.4436	-0.7604	-18.2054
232.144	-229.333	995.311	3.26	-0.6031	-18.118
212.828	-226.821	974.202	2.8667	-0.4283	-18.1967
228.974	-241.712	948.727	2.3904	-0.4151	-18.3802
233.579	-218.33	1005.72	2.976	-1.0444	-18.3278
212.709	-260.429	932.641	1.4858	-0.909	-18.2797
222.456	-203.858	1068.51	3.7713	-1.3678	-18.3627
222.516	-231.127	1023.24	1.2367	-1.0838	-18.4895
213.725	-227.001	946.873	0.7473	-1.0969	-18.5594
214.443	-204.935	972.707	1.5688	-0.9395	-18.7036
204.277	-246.735	1013.43	1.8354	-1.228	-18.7823
239.798	-241.054	975.398	1.8048	-1.3503	-18.8828
244.283	-220.363	965.89	1.7043	-0.9701	-18.791
233.1	-252.177	926.661	1.8835	-0.4545	-18.8128
256.303	-248.708	967.026	3.0328	-1.193	-18.7604
258.276	-268.024	972.348	2.6045	-1.8092	-18.7211
235.732	-246.615	1006.97	2.2506	-2.6439	-18.6686
251.339	-205.054	965.949	1.1668	-1.9141	-18.3846
221.38	-256.602	958.295	0.6511	-1.4858	-18.3365
236.031	-230.051	926.422	0.8434	-2.1763	-18.4851
218.091	-216.655	1025.33	1.0007	-1.7698	-18.5725
232.383	-248.05	1033.64	-0.4064	-2.0015	-18.4195
232.383	-217.014	1042.91	-0.1573	-0.2141	-18.4895
209.36	-253.851	927.319	-1.1974	0.9177	-18.6206
256.602	-253.851	1013.61	0.9614	0.402	-18.5157
233.639	-252.117	1018.51	0.118	0.7254	-18.5506
235.791	-252.775	1073.47	0.8216	1.1012	-18.6686
234.835	-246.795	861.06	-1.2804	1.665	-18.7429
257.02	-260.608	861.06	1.4596	1.9534	-18.7735
213.067	-204.217	875.293	1.1712	0.2884	-18.7823
259.891	-291.286	828.11	3.378	-0.3627	-18.8434
236.09	-215.519	874.336	2.1413	-0.7473	-18.9745
242.549	-257.798	792.948	5.008	-2.1238	-19.0008
236.389	-230.469	909.438	3.6227	-2.5696	-19.0663
250.323	-262.881	870.987	6.0874	-3.2425	-19.0969
248.469	-253.373	980.421	4.925	-3.4042	-19.1406
248.589	-285.246	974.561	5.5717	-3.8281	-19.0401
255.226	-262.163	1026.17	4.7196	-3.6052	-18.9527
271.552	-274.183	1001.05	5.882	-3.2076	-18.8172
259.831	-269.698	1083.52	4.4356	-3.1377	-18.6817
265.632	-303.425	1072.27	4.5273	-3.7626	-18.4239
270.535	-281.419	1133.63	3.5615	-3.413	-18.3453
246.137	-260.07	1128.9	3.1245	-2.8536	-18.2622
255.765	-247.871	1071.92	3.6184	-2.3554	-18.2928
256.123	-238.662	1079.69	3.5222	-1.7655	-18.271
250.024	-256.123	1059.48	3.3474	-1.1187	-18.2098
250.921	-240.695	984.188	4.7983	-0.9789	-18.201
248.589	-255.525	1022.1	4.842	0.1092	-18.1792
255.107	-238.423	994.893	4.842	0.9308	-18.2054
255.466	-245.658	979.584	5.0255	0.9308	-18.118
249.844	-251.04	986.82	4.8289	0.2054	-18.2098
243.446	-242.728	1006.43	4.5098	-0.7953	-18.271
232.323	-249.187	1064.2	4.1165	-0.6293	-18.271
229.991	-239.08	1113.72	3.2338	-0.5681	-18.3365
231.306	-223.413	1060.49	1.9184	-0.4763	-18.3365
222.875	-241.771	946.993	0.9046	-0.5506	-18.3496
221.14	-216.057	969.238	1.9184	-0.7123	-18.5113
231.067	-231.007	963.737	1.5514	-0.6074	-18.6643
243.446	-235.911	938.262	1.5295	-0.7647	-18.6075
230.409	-220.363	917.392	1.5033	-0.8347	-18.5769
235.791	-249.246	990.527	2.4603	-1.783	-18.5069
263.24	-228.675	1007.57	2.2418	-1.63	-18.5288
244.881	-243.506	963.617	1.394	-1.2061	-18.5419
261.984	-244.044	915.418	1.11	-1.9053	-18.4021
245.898	-228.496	937.485	1.783	-2.1588	-18.3016
257.02	-248.349	964.454	2.6613	-2.6701	-18.2579
244.582	-230.29	1002.25	2.6832	-1.8878	-18.153
273.107	-259.771	968.102	1.949	-2.1151	-17.9869
259.233	-228.496	990.946	2.5739	-2.2637	-17.8558
262.701	-253.731	952.734	2.102	-2.6744	-17.6679
250.861	-240.934	1048.05	3.343	-2.4385	-17.4494
275.379	-236.449	1042.25	2.4472	-2.3336	-17.1916
253.432	-228.735	998.481	1.9927	-2.2899	-16.89
263.12	-225.566	965.83	1.9403	-2.6133	-16.7021
249.067	-220.841	1020.55	2.6526	-3.0066	-16.3744
251.937	-212.17	1000.27	2.1806	-2.5696	-16.0991
243.625	-205.234	990.348	2.6875	-1.8179	-15.8369
247.034	-218.748	968.999	2.74	-1.9141	-15.5616
249.067	-207.626	1030.89	3.3299	-1.8048	-15.3256
243.326	-198.058	1015.58	3.2862	-1.0138	-15.0459
247.931	-204.337	1011.16	3.0109	-0.909	-14.7487
253.432	-204.097	1018.69	2.657	-0.8303	-14.3554
229.034	-194.888	1000.16	2.5914	-0.9352	-14.0364
232.203	-180.118	1027.3	2.2156	-1.2804	-13.7699
225.685	-182.031	990.049	1.4159	-1.1056	-13.5164
197.4	-150.038	987.238	1.3328	-1.1056	-13.3329
203.798	-147.826	928.096	1.3897	-1.1231	-13.1362
179.52	-141.905	985.624	2.8143	-0.5681	-13.0444
207.745	-165.526	952.973	2.8711	-0.3496	-12.9177
216.954	-149.799	976.414	3.5178	-0.1486	-12.7298
213.187	-159.367	945.857	3.3867	-0.2709	-12.4938
209.599	-167.201	959.79	3.8762	-0.4414	-12.2447
207.925	-162.955	993.756	3.8456	-0.7822	-11.8995
195.666	-150.158	993.637	3.2688	-1.0663	-11.6329
199.911	-134.012	939.637	2.8361	-1.276	-11.3707
180.536	-120.497	986.341	3.5965	-1.4159	-11.1391
171.805	-131.44	1008.89	3.5572	-0.8216	-10.9468
205.951	-125.879	981.258	3.3037	-0.3452	-10.5623
176.171	-125.819	1015.1	3.7669	-0.1311	-10.2214
182.689	-141.666	1001.95	3.6402	-0.0218	-9.8849
191.48	-105.667	1037.17	3.9723	0.4457	-9.4916
177.008	-104.172	999.976	2.9148	0.8478	-9.0721
189.088	-112.005	966.308	2.5608	0.5594	-8.6876
152.251	-77.9194	978.448	3.1595	0.2666	-8.338
141.248	-78.637	958.534	3.2382	0.4982	-8.0102
160.204	-59.202	937.544	3.461	1.1406	-7.7786
174.018	-60.3382	942.747	3.7844	0.5113	-7.4902
148.543	-52.923	920.083	3.8237	0.4938	-7.2105
137.839	-58.4844	949.325	4.4792	-0.2229	-6.8784
137.54	-56.0924	987.776	4.7502	-0.4064	-6.6468
129.288	-30.199	975.996	4.3001	-0.2928	-6.4938
150.816	-38.0328	913.325	3.3518	-0.9439	-6.3015
100.165	-6.2192	1024.85	5.1566	-1.6038	-6.0874
105.906	-32.8302	980.84	3.8194	-1.11	-6.153
125.64	-0.7176	1024.13	4.5098	-1.3023	-6.0088
112.424	-33.9066	1015.88	3.295	-1.3503	-5.8252
113.142	-8.073	1014.21	3.1027	-0.957	-5.7466
103.334	-23.5612	1025.87	2.4166	-1.2105	-5.7116
89.102	-35.1026	1046.26	2.5346	-1.3154	-5.5543
79.235	-18.837	996.507	1.8791	-0.7385	-5.6023
123.965	-2.5714	1002.43	2.303	-2.0277	-5.5936
88.1452	-2.0332	1026.77	3.0852	-1.9228	-5.4581
96.4574	-30.0196	975.458	2.6832	-0.9133	-5.362
107.52	-18.837	1042.55	3.614	-2.0976	-5.2833
112.843	-50.9496	863.153	1.9971	-2.0845	-5.3008
81.2084	9.5082	945.139	3.9854	-3.6577	-4.9993
101.839	-15.0098	915.418	3.2294	-4.3787	-4.7939
76.843	7.2358	977.73	4.7677	-3.3343	-4.9206
77.8596	-57.9462	1018.39	4.1165	-3.6184	-4.9031
64.1654	-18.7772	1244.98	5.6548	-3.2425	-4.7851
67.9328	-43.7138	1188.17	2.8274	-1.8267	-4.8507
65.4212	-38.1524	1071.74	0.8216	-0.1398	-4.8638
87.1286	-32.4714	1104.81	1.4814	-0.9221	-4.5841
30.5578	-67.7534	1095.3	-0.5463	0.035	-4.4836
35.1026	-48.7968	1090.51	-0.5419	-0.1617	-4.5055
19.0762	-45.2088	1041.78	-1.7611	1.0925	-4.5885
43.5344	-53.222	975.039	-1.6868	1.429	-4.5142
23.7406	-53.5808	900.887	-2.2331	2.1282	-4.4181
37.375	-58.7834	868.416	-1.2061	1.7043	-4.3176
27.508	-63.4478	835.107	-0.6511	1.8048	-4.1602
35.282	-62.192	839.652	0.3146	1.3765	-4.1165
17.1626	-61.4146	861.658	0.874	0.9745	-4.0335
47.1224	-62.5508	829.785	0.236	0.2709	-3.8849
21.827	-30.5578	890.96	1.831	-0.3321	-3.7145
8.8504	-68.0524	857.771	1.3241	-0.8434	-3.7014
16.5646	-37.973	946.933	2.8492	-1.3984	-3.6926
34.6242	-40.066	876.429	1.6256	-1.5426	-3.4785
10.5846	-46.943	948.009	3.0153	-2.4079	-3.3299
16.5646	-56.0924	947.232	2.8361	-2.6264	-3.2644
14.651	-48.8566	1016.54	3.1901	-2.8929	-3.0721
13.3354	-40.3052	982.574	2.4035	-3.2425	-2.7618
15.1892	-43.7736	987.059	2.5433	-3.3256	-2.5827
5.382	-10.5846	1036.93	3.3037	-3.094	-2.4953
3.3488	-37.4348	1027.84	2.2637	-3.0153	-2.2986
-12.558	-27.4482	1062.77	2.657	-2.4428	-2.15
18.1792	-27.6874	1063.84	2.3423	-2.1369	-1.9578
-2.4518	-36.5976	1074.37	1.7305	-1.7611	-1.8441
-5.2624	-26.91	1063.84	1.1449	-1.276	-1.7261
-12.857	-15.249	1014.21	0.1573	-0.8347	-1.595
-30.6176	-29.7804	1009.72	0.4501	-1.1537	-1.547
-31.7538	-24.0994	1013.97	1.0575	-0.673	-1.512
-24.6376	16.0862	985.683	1.6213	-0.3889	-1.5339
8.8504	-32.9498	919.246	1.9665	0	-1.5688
0.8372	-15.249	960.567	3.3518	0.1704	-1.6125
19.8536	-30.199	913.505	1.949	-0.5375	-1.5033
-14.2324	-16.2656	902.801	2.1544	-0.638	-1.3547
-6.4584	-10.465	871.346	1.6256	-1.3678	-1.2323
-24.0396	-4.2458	931.923	2.4253	-1.311	-1.2061
-40.6042	-25.0562	981.258	2.3729	-1.1493	-1.2367
-10.166	0.4186	1037.59	2.8798	-0.7953	-1.3416
1.2558	-33.488	1110.25	3.2688	0.0044	-1.4159
-19.136	-36.5976	1112.7	2.7968	1.4639	-1.3503
19.0164	-45.3284	949.265	1.1318	2.032	-1.1187
-7.3554	-18.5978	930.01	2.2855	1.9228	-1.0575
-21.1094	-18.4782	881.811	2.067	1.4465	-1.0007
-21.9466	-15.6676	880.136	2.4166	0.5594	-1.0095
-28.8834	4.2458	874.216	2.5477	0.6468	-1.0838
-53.7004	-9.7474	905.731	3.0852	-0.2141	-1.1886
-49.1556	-35.4614	1010.68	3.6664	-0.7342	-1.1668
-33.7272	7.7142	980.959	3.6621	-0.1136	-1.2542
-10.2258	-33.787	888.269	1.8004	-0.3146	-1.2411
-27.1492	13.8736	954.229	3.9985	-1.0706	-1.2149
-27.6874	-13.2158	928.335	2.6264	-1.2498	-1.1581
-34.5644	0.5382	998.421	4.2302	-1.713	-1.1143
-5.8006	-12.259	981.856	3.3605	-1.7567	-1.0881
-55.614	9.5082	1032.87	3.9155	-1.9009	-0.9832
-29.302	-2.392	980.062	3.0328	-1.7436	-1.0575
-14.1128	19.0762	1018.51	3.7101	-1.9665	-1.1362
1.5548	23.4416	994.594	3.1595	-2.4253	-1.1537
1.3754	29.2422	981.737	3.1639	-2.1981	-1.2411
-5.083	25.415	997.464	3.1158	-2.5608	-1.2192
7.4152	13.754	1012.59	2.8886	-2.6701	-1.193
-7.0564	16.6842	1052.18	2.8012	-2.6919	-1.1143
-24.2788	21.8868	1060.01	2.1719	-2.1107	-1.0969
-21.827	0	1006.25	1.4596	-1.2892	-1.1493
-33.2488	17.9998	1066.83	2.2462	-1.228	-1.2105
-0.4186	1.0166	1043.03	1.4989	-0.9133	-1.311
-0.3588	-2.093	983.71	1.2935	-0.2622	-1.394
17.043	-5.6212	941.312	1.3853	-0.6555	-1.2673
5.083	9.867	983.65	2.386	-1.0706	-1.1143
11.9002	-4.1262	942.627	1.7218	-1.5033	-1.0619
-11.063	40.9032	909.977	2.0845	-1.2586	-1.0575
13.8736	13.6344	859.027	1.9796	-1.7961	-1.0969
0.4784	39.5278	949.445	3.6577	-1.9796	-1.1012
3.7674	1.1362	944.481	2.6788	-2.3467	-1.1624
-3.887	22.126	1006.61	3.2731	-2.102	-1.1581
15.249	5.98	1014.81	2.6089	-1.9971	-1.1362
-10.5846	4.6046	1090.57	2.6264	-1.7742	-1.0532
5.5614	10.3454	1074.61	1.9315	-1.6431	-1.0095
-20.1526	32.9498	1011.4	0.992	-0.7429	-1.0532
-11.0032	25.4748	1001.41	1.4814	-0.1486	-1.1231
-4.5448	20.5114	977.61	1.8004	0.5419	-1.193
9.3288	0.7176	977.61	1.9971	0.0787	-1.11
3.5282	12.1394	932.701	1.6431	0.0481	-1.0313
-13.2158	5.6212	939.398	1.8135	-0.2403	-0.9832
-1.196	14.2324	935.392	2.067	-0.7647	-0.9002
-17.8802	5.083	951.597	2.1413	-1.2892	-0.8434
-44.7902	29.5412	954.169	2.6744	-1.4639	-0.7604
-35.7604	3.1694	929.651	2.2593	-1.1449	-0.7779
-12.7972	15.0098	940.056	3.579	-1.0095	-0.8347
-30.2588	15.3686	990.168	3.9854	-1.276	-0.6555
3.8272	-8.6112	978.567	3.4436	-1.5514	-0.5594
-25.0562	15.3088	1019.89	4.0291	-0.7385	-0.4982
-3.588	-20.5114	1013.31	3.0896	-1.9141	-0.3059
-40.9032	15.847	1052.42	3.0546	-1.4465	-0.1704
-37.375	14.5314	1042.07	2.504	-1.4465	-0.118
-42.3384	10.2258	1025.33	2.0452	-0.7779	-0.0787
-37.4946	20.8702	1003.09	1.8966	-0.8784	-0.0743
-45.9264	22.8436	1020.43	2.1763	-0.6249	-0.1092
-37.375	7.774	987.119	2.0408	-0.1398	-0.1267
-45.5078	11.9002	986.102	2.1282	0.2622	-0.0787
-27.3286	9.8072	964.753	1.8966	-0.1049	-0.0262
-40.9032	9.5082	945.019	1.3285	0.0218	-0.0437
-47.7204	36.2986	977.491	1.5601	-0.5375	-0.0655
-60.398	34.4448	939.398	0.9395	-0.5463	-0.0524
-61.9528	34.1458	961.464	1.2673	-0.6205	-0.1355
-50.6506	20.332	948.966	0.9221	-0.4894	-0.2884
-34.2654	18.8968	953.212	1.1537	-0.6468	-0.3234
-42.5776	23.92	966.009	1.3722	-0.6468	-0.3715
-38.4514	4.0664	929.77	1.1493	-0.7385	-0.3452
-35.7006	14.2922	945.916	1.8878	-0.9264	-0.3671
-56.3914	-9.8072	930.368	1.3241	-1.0706	-0.3627
-75.8862	-13.455	1006.79	2.0058	-1.8179	-0.3277
-55.5542	-3.9468	942.687	1.0663	-1.6038	-0.3496
-72.2384	15.1294	983.59	1.5688	-1.8966	-0.354
-67.4544	-5.8006	919.066	1.0007	-1.9927	-0.3409
-61.5342	1.794	992.381	2.421	-1.7873	-0.437
-30.0196	-2.093	956.92	1.7567	-1.9796	-0.5113
-27.4482	12.6776	990.647	2.5783	-1.7174	-0.4545
-51.6074	-8.3122	1009.78	2.4559	-1.4596	-0.3321
-42.2786	-4.485	1006.55	2.1282	-1.3241	-0.3365
-35.88	-5.2026	1008.05	1.8922	-1.7261	-0.284
-60.7568	-4.186	1024.19	1.9665	-1.3897	-0.3321
-54.8366	0.9568	1004.58	1.5601	-1.3328	-0.319
-52.0858	-9.269	970.973	1.4028	-0.8915	-0.3977
-62.7302	11.1826	1010.86	2.3773	-0.5856	-0.4545
-29.3618	-29.3618	967.145	1.3416	-1.4639	-0.4108
-54.8964	12.4384	985.982	2.2243	-0.7516	-0.4676
-51.7868	-7.0564	942.807	1.3547	-1.1449	-0.354
-34.5046	-3.9468	962.84	1.9796	-1.748	-0.3059
-61.4146	-13.0962	947.053	1.6737	-1.2323	-0.402
-58.9628	3.588	971.87	2.4428	-1.4683	-0.3496
-36.5378	-4.784	959.312	1.984	-1.2411	-0.3758
-56.3914	-2.99	979.703	2.3336	-1.1275	-0.402
-53.1024	-10.8836	964.454	2.2811	-1.0881	-0.4151
-49.2752	-0.7176	1034.42	2.7356	-0.9133	-0.3846
-34.7438	-18.7772	971.75	1.9578	-0.7997	-0.3627
-61.9528	-0.0598	1034.3	2.102	-1.3765	-0.3583
-39.767	8.97	967.983	1.1624	-1.3547	-0.3627
-67.6338	0.1794	972.288	1.1406	-1.0706	-0.3365
-51.0094	-10.6444	938.92	0.7822	-2.3642	-0.3409
-58.9628	13.8138	939.877	1.5339	-1.7873	-0.3409
-63.986	6.877	964.395	1.8223	-2.2418	-0.3715
-49.2752	-8.2524	964.395	1.5076	-1.7961	-0.4763
-43.953	8.4916	1018.27	2.2331	-1.8485	-0.52
-44.3716	-20.631	992.022	0.992	-2.2331	-0.4982
-59.0226	1.196	1003.2	1.4727	-2.0583	-0.4545
-45.2088	-8.1328	988.434	0.8696	-1.9403	-0.5987
-55.614	4.6644	1005.78	0.7516	-2.1937	-0.6336
-49.5742	-23.1426	990.467	-0.3889	-2.6613	-0.7735
-64.285	30.4382	1005.96	0.3452	-1.9709	-0.9527
-50.4712	-7.4152	981.856	-0.5025	-2.2374	-1.0226
-55.3748	-5.2624	969.657	0.035	-1.6825	-1.1012
-31.694	-16.9832	959.431	0.0961	-1.6038	-1.2673
-25.8934	-39.2886	931.445	-0.6031	-1.9927	-1.3285
-42.3384	-6.3986	947.83	0.4588	-1.7524	-1.4334
-32.292	-31.3352	979.345	0.236	-2.5608	-1.4989
-15.6078	-29.0628	913.804	0.0306	-2.5302	-1.595
-45.8068	-15.249	968.461	1.0969	-2.2025	-1.6737
-14.5912	-49.933	940.056	0.236	-2.5084	-1.7043
-22.8436	-15.7872	960.089	0.9745	-2.102	-1.8092
-6.5182	-45.2088	958.833	1.0226	-2.9366	-1.9272
-34.7438	-18.4184	1001.47	1.8004	-2.3598	-1.9752
-14.7706	-72.8962	959.611	0.638	-2.1457	-1.9927
-11.9002	-35.3418	1012.77	2.0539	-1.6912	-2.1457
-2.7508	-58.0658	989.75	1.2848	-1.9009	-2.1195
-21.827	-37.674	1035.98	2.1457	-1.547	-2.1063
-17.8802	-58.1854	963.557	1.3809	-0.083	-2.2506
-3.289	-64.1654	980.84	1.8092	-0.2272	-2.3467
5.3222	-81.8662	966.787	1.1362	-0.5943	-2.3642
-12.6776	-49.5742	1033.16	1.4989	-0.8784	-2.4122
-12.3786	-63.1488	905.193	-0.2403	-0.8128	-2.4035
-40.4846	-48.9164	973.066	1.4945	-0.5375	-2.4996
-4.3654	-67.0956	941.73	0.5419	-1.2367	-2.6133
-45.747	-45.448	970.135	1.748	-0.6905	-2.8449
-20.93	-75.049	955.365	1.7742	-0.6642	-2.9978
-11.063	-63.0292	911.053	1.984	-0.4151	-3.1114
-13.6344	-85.2748	929.471	2.9104	-1.0881	-3.2469
1.8538	-85.8728	925.584	2.823	-1.5514	-3.3081
-30.3186	-81.5074	971.87	3.0896	-1.8616	-3.496
-2.6312	-75.4676	949.086	2.4734	-2.5477	-3.5397
-23.2024	-70.863	998.78	3.5747	-2.5346	-3.6227
-29.601	-86.6502	1040.76	3.378	-2.7706	-3.697
2.4518	-91.0156	1010.86	3.0677	-2.1238	-3.8806
-21.1094	-92.5106	1021.68	2.5259	-1.831	-3.9417
5.681	-100.404	1016.96	2.421	-2.3205	-3.8806
-22.0064	-95.6202	1079.57	2.469	-1.8791	-3.8893
-11.661	-109.195	1030.41	1.5688	-1.6169	-3.8456
-37.2554	-97.1152	1017.02	1.7087	-1.3634	-3.8631
-1.0764	-110.869	1040.04	1.9184	-1.9665	-3.9505
-44.252	-85.6336	1022.34	2.0539	-0.8609	-3.9898
-28.3452	-131.022	995.371	1.8529	-0.5812	-3.9898
-10.2856	-84.916	993.936	2.1631	-0.2884	-4.0029
3.289	-131.022	913.266	0.8827	-0.8958	-4.0466
-49.5742	-102.378	970.135	2.1631	-0.7298	-4.0816
-27.2688	-104.351	894.787	0.5331	-1.0619	-4.0641
-25.6542	-114.637	959.85	2.0845	-0.9177	-4.2039
-34.6242	-126.417	1032.33	2.2156	-0.6992	-4.2651
-36.7172	-122.889	1077.54	1.3372	-0.3277	-4.3525
-17.1028	-116.909	988.374	0.6468	0.8216	-4.5361
-28.8834	-122.291	946.215	0.6686	1.3154	-4.6235
-18.1792	-142.623	945.498	0.6249	0.3496	-4.5492
-25.116	-120.736	929.531	0.236	0.7604	-4.6846
-21.0496	-122.112	879.718	0.035	0.5331	-4.8289
-28.4648	-141.128	937.485	0.5899	-0.638	-4.8594
-24.6974	-113.62	959.013	0.5419	-0.4938	-4.9643
-35.5212	-143.699	910.455	-0.2709	-0.6992	-5.0692
-45.3284	-134.909	898.914	0.638	-0.9439	-5.2047
-26.6708	-140.41	917.212	0.7735	-1.2017	-5.279
-34.684	-130.543	942.089	1.5164	-1.228	-5.3489
-26.611	-169.174	902.681	0.7997	-1.6169	-5.4712
-23.9798	-163.015	946.993	2.0408	-2.1151	-5.5237
-35.2222	-152.669	978.926	2.0801	-2.1763	-5.5499
-27.6276	-162.656	959.91	1.6825	-2.5564	-5.5805
-32.89	-152.968	985.504	2.622	-2.705	-5.6417
-33.7272	-168.098	1006.85	2.6089	-2.5608	-5.7466
-25.9532	-159.367	1018.04	2.421	-2.8012	-5.8777
-21.7074	-180.237	996.388	2.2287	-3.0721	-5.9738
-36.5378	-163.912	1017.08	2.7094	-2.8886	-5.9782
-25.415	-191.24	1000.04	2.5084	-2.8405	-5.9563
-23.7406	-181.433	1046.08	2.8492	-2.6963	-6.0393
-16.0862	-195.486	1005.54	2.3205	-2.5171	-6.0656
-30.9764	-182.629	1094.4	3.26	-2.2855	-6.1311
-27.5678	-201.646	1048.83	1.4159	-2.0932	-6.2841
-20.8702	-184.662	1028.68	1.3285	-1.6606	-6.3671
-33.5478	-200.091	1017.44	0.9658	-1.9534	-6.3933
-36.179	-186.217	1033.94	1.0313	-1.8354	-6.6205
-39.0494	-209.659	998.66	-0.1486	-1.7043	-7.0226
-28.3452	-173.839	998.959	0.1704	-1.9534	-7.2935
-42.3384	-210.915	948.787	-0.7822	-2.2287	-7.4902
-42.6972	-194.529	969.478	0.3365	-2.3554	-7.9315
-29.1824	-201.287	985.743	0.4501	-2.0976	-8.3598
-14.053	-208.523	897.897	0.083	-2.4253	-8.6482
-26.4914	-239.858	947.292	0.8434	-2.469	-9.0109
-8.5514	-235.791	975.577	1.1886	-2.587	-9.3562
-9.0298	-252.177	950.222	0.7691	-2.7924	-9.5572
-7.9534	-240.037	942.568	1.429	-2.7312	-9.7626
4.6644	-274.183	996.627	1.6606	-2.6439	-9.9592
-3.9468	-273.166	1005.12	1.228	-2.5696	-10.3394
17.8802	-280.522	989.69	0.6948	-3.0459	-10.4137
-11.96	-277.173	1053.56	1.2411	-2.8842	-10.4312
-6.1594	-281.239	1064.86	0.4108	-2.7356	-10.571
32.7704	-291.346	968.222	-0.7079	-2.2637	-10.6541
-34.8634	-291.824	1002.85	0.0481	-2.1675	-10.6715
20.033	-305.937	954.767	-0.8521	-3.3605	-10.8245
-3.887	-275.618	1002.19	0.5899	-2.8449	-10.89
-1.4352	-312.395	911.232	0.5943	-2.8274	-10.8157
-2.99	-282.256	984.607	2.6482	-1.9272	-11.043
31.4548	-353.597	951.358	2.22	-2.9148	-11.2003
8.4318	-306.535	1012.89	3.9767	-2.1369	-11.2396
33.488	-331.412	915.658	3.1639	-2.2287	-11.3576
6.6976	-318.136	1015.46	4.287	-2.9847	-11.4625
12.3786	-340.322	947.71	2.6482	-3.1726	-11.5543
-20.5712	-299.957	975.757	3.4348	-2.6526	-11.799
-20.5712	-316.163	1058.1	3.7495	-3.3037	-12.0831
-5.6212	-343.192	1115.63	3.2251	-2.8755	-12.4545
14.352	-331.711	1140.39	2.6001	-1.4596	-12.7342
-13.6344	-331.711	1101.22	1.0444	-1.5557	-12.7123
19.9134	-345.883	1015.05	-0.083	-0.5157	-12.7648
10.465	-357.006	1059.48	2.2986	0.3889	-13.0139
-2.392	-324.056	1059.48	1.346	1.0095	-13.145
30.4382	-363.106	1023.48	1.0575	1.2367	-13.1843
1.6744	-371.777	995.55	0.791	1.6082	-13.3198
11.96	-354.793	908.302	1.9709	1.8835	-13.5033
-4.6046	-342.953	909.319	2.1588	1.7567	-13.6694
24.219	-367.112	894.668	2.8623	1.11	-13.6868
4.3654	-363.524	948.906	1.9141	1.1537	-13.9053
-12.6178	-368.189	912.309	2.2068	1.0095	-14.2025
-0.1794	-357.305	925.106	1.8835	0.4851	-14.386
5.2624	-360.175	947.77	1.5382	0.3146	-14.4953
-2.392	-371.478	919.365	2.0757	0.3802	-14.4997
-7.2358	-349.053	947.651	2.0976	0.6817	-14.4734
0	-350.009	938.74	2.504	1.5994	-14.6657
9.0896	-416.148	931.923	3.3955	1.7305	-14.7662
44.0128	-355.81	981.378	1.2586	0.5463	-14.622
6.7574	-423.205	935.75	2.032	0.6905	-14.2724
-12.1992	-384.813	964.275	2.4909	1.5382	-14.185
-3.2292	-353.478	932.282	3.4436	1.4115	-14.3511
-1.2558	-422.906	1020.37	1.8791	1.4858	-14.1632
23.5612	-371.059	948.069	2.1282	0.4239	-13.9884
-21.827	-391.331	969.358	2.0495	0.354	-13.9403
-32.9498	-388.58	972.228	2.0495	-0.0743	-13.9272
18.1792	-373.69	947.71	1.228	-0.0699	-13.6038
-54.9562	-348.514	905.013	1.6825	0.0699	-13.6694
-26.8502	-374.348	866.801	1.4945	-0.7079	-13.5514
-69.4278	-342.534	1024.43	3.9374	-0.7079	-13.5514
-41.3218	-404.846	869.073	0.8172	-0.7036	-13.6999
-36.8966	-362.508	971.032	3.0415	-0.8784	-13.63
-50.1124	-370.341	990.408	2.3948	-1.0663	-13.63
-43.355	-364.601	1023.42	2.4122	-1.1275	-13.4552
-57.4678	-426.553	957.278	1.5164	-1.0095	-13.3853
-60.7568	-356.707	1050.75	2.9891	-1.3634	-13.4465
-62.9096	-379.73	948.667	0.9308	-0.9658	-13.2892
-81.627	-352.76	985.325	2.5433	-0.5594	-13.3066
-6.877	-375.843	963.378	2.0189	-1.394	-13.3285
-79.9526	-366.036	1027.18	2.9672	-0.7691	-13.2149
-68.9494	-404.308	964.574	1.8135	-1.8878	-13.0969
-79.0556	-373.81	958.116	1.9053	-1.5339	-12.9396
-78.5174	-355.75	1040.4	3.0153	-2.5564	-12.9352
-74.152	-396.295	910.814	0.5943	-2.9716	-12.9483
-86.9492	-325.491	1044.77	3.1158	-3.343	-12.8172
-107.819	-377.936	923.79	1.1537	-3.0765	-12.9133
-107.52	-358.441	953.989	2.8973	-2.4516	-12.9002
-55.016	-356.946	994.175	3.1551	-3.2076	-12.8216
-25.8934	-388.461	932.641	2.9192	-3.5572	-12.909
-125.102	-342.534	1020.07	4.0859	-3.8762	-12.6599
-54.1788	-417.643	988.075	2.5521	-4.134	-12.4982
-73.1354	-340.681	1051.7	3.9942	-3.8019	-12.4589
-58.903	-367.232	976.953	2.0102	-4.724	-12.2841
-101.421	-324.056	1057.98	3.9286	-4.3787	-11.9956
-103.574	-353.538	1012.89	3.4916	-3.8281	-11.9082
-105.487	-387.564	1023.18	4.4661	-3.059	-11.8689
-30.8568	-384.514	1026.89	4.7895	-3.0372	-11.834
-74.8696	-358.381	1089.85	4.5798	-3.3867	-11.6504
-58.305	-373.032	906.329	2.4778	-3.3649	-11.3795
-97.5338	-350.368	1001.71	4.2913	-3.4392	-11.2047
-138.317	-329.558	1053.26	3.6926	-3.8194	-10.8594
-67.3946	-370.222	1101.28	3.094	-3.6664	-10.8813
-118.225	-292.781	1063.42	3.2382	-2.4079	-10.89
-123.607	-349.172	978.567	1.5776	-1.8485	-10.9512
-106.564	-311.678	1030.83	3.177	-2.2156	-10.7764
-107.401	-352.222	1059.3	1.9228	-1.8354	-10.724
-103.215	-319.81	976.355	1.9665	-1.8092	-10.5361
-160.683	-376.86	1075.68	2.1063	-1.3547	-10.3744
-60.398	-310.781	985.384	2.1675	-1.6387	-9.9374
-111.108	-352.461	1014.39	2.8318	-1.0619	-9.9243
-117.208	-354.375	1021.86	3.4217	-1.3634	-9.5528
-102.318	-345.584	922.893	2.5433	-1.2017	-9.2338
-131.62	-294.336	972.527	5.1697	-1.2979	-9.0809
-84.4974	-325.611	916.614	5.0255	-1.3678	-8.9629
-131.201	-317.239	1053.86	6.9352	-1.0357	-8.8667
-109.613	-325.611	936.946	4.1384	-0.9264	-8.74
-134.072	-292.721	967.026	5.1347	-0.9308	-8.6919
-134.251	-296.787	943.584	4.2913	-1.394	-8.5608
-139.334	-277.711	1005.66	4.654	-1.4902	-8.4341
-158.889	-273.525	972.527	3.3605	-0.8303	-8.4559
-160.802	-295.472	1004.58	3.1508	-0.9876	-8.4996
-150.457	-262.881	999.796	2.6264	-0.673	-8.4734
-139.812	-294.037	1003.38	2.1763	-0.5594	-8.4909
-156.556	-267.605	1122.51	2.8143	-0.6948	-8.2986
-144.357	-293.797	1073.17	0.236	-0.4545	-8.185
-159.905	-289.073	980.899	-1.0095	-0.236	-8.0233
-160.144	-264.196	1057.26	0.5375	-0.3146	-7.9315
-143.042	-290.389	1093.5	0.1486	0.0262	-7.7349
-154.344	-304.382	1021.2	-0.0218	1.0444	-7.6431
-119.66	-307.252	947.172	0.0568	1.4028	-7.547
-130.424	-297.864	921.04	0.8565	1.4902	-7.346
-128.57	-300.136	859.446	1.075	0.839	-7.1755
-146.271	-291.465	906.448	2.5608	0.2666	-7.0532
-141.487	-286.98	898.914	2.5696	-0.3146	-7.0051
-148.603	-285.724	912.07	2.6307	-0.9745	-6.9221
-158.769	-257.977	903.518	2.9672	-1.4377	-6.9221
-168.337	-264.256	897.06	3.142	-2.0626	-7.0095
-172.822	-257.379	917.631	3.6795	-2.3642	-7.0881
-179.101	-259.592	957.577	4.1165	-2.5608	-7.1144
-173.36	-263.24	957.039	3.8237	-2.5739	-7.0663
-154.045	-258.934	963.617	4.051	-2.5914	-7.0488
-173.48	-252.117	969.298	4.1602	-2.9148	-6.9264
-164.689	-275.857	989.511	3.8456	-3.1551	-6.8915
-166.244	-250.442	1012.83	3.7058	-3.0852	-6.7735
-154.224	-259.951	1007.45	3.2469	-3.0109	-6.5812
-141.786	-230.589	1008.71	3.4217	-2.6657	-6.3278
-141.547	-241.472	1024.02	3.8369	-2.3336	-6.0874
-136.703	-248.349	1028.98	3.9592	-1.831	-5.965
-114.218	-243.087	1029.28	3.8543	-1.8878	-5.7771
-117.985	-236.629	1037.47	3.7189	-1.5514	-5.563
-103.394	-231.366	1016.78	3.142	-1.7655	-5.0954
-135.387	-218.868	996.208	2.7662	-1.9228	-4.654
-149.081	-214.024	988.315	2.7487	-2.2593	-4.3569
-154.284	-193.094	1022.1	2.9061	-2.2899	-4.1428
-164.809	-199.134	998.899	2.4996	-2.1238	-3.9723
-153.327	-198.357	1001.47	2.3991	-1.9141	-3.8718
-156.138	-196.563	979.703	2.4341	-1.7218	-3.7757
-167.081	-209.778	992.859	2.5739	-1.8135	-3.6052
-155.958	-201.526	979.105	2.2855	-2.0364	-3.5004
-169.413	-196.862	1006.19	2.3685	-2.1675	-3.4698
-163.134	-207.745	999.318	1.7655	-2.2418	-3.4523
-175.214	-184.902	995.012	1.8791	-2.3292	-3.4261
-181.254	-208.762	971.212	1.6344	-2.3336	-3.4698
-170.251	-189.028	968.042	2.4559	-2.0801	-3.6009
-178.682	-210.137	977.311	2.9366	-1.8572	-3.697
-147.527	-228.017	986.162	3.2032	-1.5426	-3.8369
-138.258	-221.738	966.428	3.1464	-1.276	-3.8412
-140.829	-232.742	993.338	3.3256	-1.7305	-3.7975
-139.812	-227.36	990.886	3.1551	-1.7218	-3.6533
-162.835	-216.536	1000.51	2.8274	-1.7524	-3.5659
-145.792	-205.533	988.016	2.4297	-1.665	-3.5659
-165.347	-200.928	983.232	1.9927	-1.7961	-3.531
-161.938	-191.898	956.74	1.6038	-1.8485	-3.496
-189.147	-183.227	978.507	2.1631	-1.7655	-3.4829
-165.048	-194.649	972.886	2.2331	-1.5208	-3.5484
-164.33	-188.729	984.487	2.539	-1.1362	-3.4829
-166.782	-199.254	981.139	2.657	-1.0706	-3.4654
-140.889	-210.735	991.125	2.4297	-1.2498	-3.531
-166.543	-198.237	982.095	2.1981	-1.5208	-3.3955
-154.882	-203.081	985.384	1.9446	-1.8791	-3.3212
-166.483	-192.436	1006.67	2.1806	-1.7961	-3.2819
-169.533	-198.416	998.54	2.032	-1.7393	-3.1901
-163.912	-191.36	1002.67	2.2899	-1.3328	-3.1683
-155.301	-195.127	986.64	2.386	-1.1231	-3.177
-143.161	-197.818	999.138	2.622	-0.9046	-3.1945
-128.211	-192.317	992.022	2.6089	-0.8478	-3.1639
-119.421	-194.171	1000.51	2.6613	-0.8653	-3.1158
-110.092	-180.596	1003.74	2.5128	-0.6205	-2.9541
-112.902	-169.772	982.933	2.3685	-0.6774	-2.8318
-115.115	-168.935	965.292	2.1588	-0.7342	-2.858
-116.73	-159.666	948.727	2.3205	-1.0444	-2.8449
-129.288	-148.842	963.976	2.775	-1.1624	-2.9061
-119.361	-150.636	953.989	2.6176	-1.1668	-2.9891
-116.49	-141.008	947.112	3.024	-1.2149	-3.0546
-120.138	-133.414	964.753	3.5353	-1.2105	-3.0852
-103.095	-142.025	958.594	3.3605	-1.3591	-3.1595
-102.916	-118.045	963.856	3.5615	-1.5776	-3.2382
-103.693	-125.161	951.538	3.0721	-1.8791	-3.2688
-106.025	-116.191	958.893	3.2862	-2.0189	-3.3562
-109.135	-113.022	984.547	3.4523	-2.0714	-3.4873
-83.7798	-118.344	992.74	3.2819	-2.032	-3.6009
-89.3412	-132.935	1000.99	3.1289	-2.1937	-3.6009
-92.1518	-148.184	1006.19	2.8099	-2.1413	-3.6489
-76.6636	-127.673	989.75	2.6788	-2.1151	-3.6271
-87.607	-134.61	989.092	2.7793	-2.22	-3.5703
-80.0124	-128.809	996.746	2.8405	-2.0452	-3.6271
-82.9426	-127.075	983.65	2.9716	-1.9315	-3.5878
-65.1222	-123.248	991.006	3.059	-1.8398	-3.7014
-31.096	-91.0156	974.8	3.177	-1.8004	-3.7669
-11.1228	-72.7766	962.421	3.1551	-1.9184	-3.8369
14.7108	-59.2618	965.591	3.2819	-2.1195	-3.8587
13.9932	-61.3548	952.674	3.1639	-2.3554	-3.8674
-6.279	-54.8964	968.042	3.5659	-2.4865	-3.8456
-2.691	-50.1124	966.248	3.6052	-2.5477	-3.9417
-13.455	-53.5808	1002.19	3.9767	-2.6395	-4.1296
-6.3986	-57.707	998.959	3.5703	-2.587	-4.2826
-39.6474	-64.1654	1021.98	3.6839	-2.4472	-4.4181
-43.4746	-71.2218	1022.1	3.3037	-2.3511	-4.6016
-15.3686	-58.9628	995.072	2.9585	-2.0452	-4.7371
-11.4816	-60.8764	1002.49	3.2251	-1.9578	-4.9643
-20.631	-70.564	1002.97	2.9847	-1.7393	-5.043
-13.0364	-78.039	993.637	2.8274	-1.63	-5.1697
4.0664	-66.1388	996.208	3.0852	-1.6344	-5.3008
10.465	-62.192	987.537	2.9934	-1.6125	-5.4363
18.0596	-65.0026	984.188	3.0896	-1.5776	-5.6504
23.6808	-63.5674	971.929	2.9891	-1.6999	-5.8121
19.3154	-56.6306	976.713	2.8798	-1.8966	-5.9913
15.548	-61.6538	970.195	2.6832	-2.0757	-6.2404
12.3786	-42.757	981.438	2.858	-2.2418	-6.4982
12.857	-43.4148	989.271	2.7312	-2.0408	-6.8696
11.1228	-54.2984	982.634	2.6176	-1.9927	-7.1755
16.0264	-53.3416	983.889	2.7444	-1.9752	-7.4071
22.7838	-45.5078	986.879	2.8405	-1.9315	-7.7262
24.6974	-64.4644	974.441	2.6744	-1.7742	-7.984
51.4878	-49.335	973.245	3.1595	-1.7786	-8.1806
81.5074	-19.7938	963.318	3.2163	-1.6344	-8.3336
96.0388	-30.3784	972.527	3.5615	-1.831	-8.5128
93.1684	-22.3652	972.228	3.5397	-1.8791	-8.5827
136.882	12.3786	952.913	3.4916	-1.8878	-8.5914
132.696	1.4352	947.95	3.5178	-1.8966	-8.539
93.6468	-18.8968	965.949	4.1384	-1.9883	-8.5215
105.607	12.1394	944.003	4.0466	-1.6912	-8.504
120.916	6.4584	967.684	4.7983	-1.4508	-8.6876
110.51	-10.4052	986.7	5.2921	-0.7516	-8.7575
126.298	-4.7242	975.517	5.4494	-0.3627	-8.7706
121.334	0	998.361	6.0568	0.1311	-8.8842
129.886	-28.3452	1018.99	6.2666	0.2535	-8.9367
142.444	12.9168	985.265	6.1573	0.5025	-9.0328
145.075	11.7806	1029.28	5.882	-0.1049	-9.2425
134.311	5.2624	1016.72	5.0648	-0.402	-9.2644
116.191	50.7702	1004.46	4.9512	-0.9133	-9.1595
109.793	76.3646	990.467	4.6803	-1.0401	-9.4348
129.706	73.1952	1010.08	4.9905	-0.4239	-9.8063
99.8062	50.531	1002.01	4.807	0.6642	-10.0685
99.7464	23.0828	1038.55	5.3576	0.7385	-10.287
161.58	36.8966	1034.96	4.7677	0.1661	-10.3307
177.307	27.8668	1016.18	3.8106	-0.6905	-10.2302
116.431	30.0196	982.394	3.2382	-0.874	-10.051
109.255	46.345	989.869	3.5353	-0.6162	-10.1209
146.032	38.3318	966.009	3.3256	-1.5688	-10.2302
118.344	32.4714	983.949	3.7713	-1.9971	-10.2957
113.919	37.7338	961.704	3.4217	-2.3991	-10.3744
115.593	42.5178	987.298	3.5965	-2.657	-10.6191
130.185	40.4846	996.866	3.7101	-3.0372	-10.7939
121.813	27.9864	985.683	3.4304	-3.5135	-10.9556
111.527	25.1758	985.683	3.6795	-3.5878	-11.161
134.849	34.983	981.079	3.5004	-3.6489	-11.4013
150.038	36.3584	980.72	3.5397	-3.7626	-11.563
150.218	15.847	960.986	3.5178	-3.9374	-11.681
143.341	12.7972	937.664	3.6446	-4.0423	-11.764
148.842	17.1626	947.172	4.1734	-3.7888	-11.9039
188.37	23.1426	937.724	4.6366	-3.6052	-11.9782
192.616	-3.1096	927.199	4.9556	-3.1595	-11.952
178.623	-6.9966	940.056	5.8777	-2.8055	-11.8558
179.998	-28.8834	951.239	6.5681	-1.9796	-11.8908
236.389	-58.1854	949.564	7.0444	-1.0706	-11.8777
277.173	10.5248	803.353	6.4195	-0.9658	-11.6766
220.303	-106.444	808.795	6.1049	-2.7007	-11.6198
37.7338	21.8868	1215.26	10.8638	-4.3525	-11.5193
117.686	106.982	1135.72	5.0386	-3.4217	-12.0481
87.7266	156.556	1020.25	4.7065	-1.8135	-12.9221
19.2556	125.281	1011.76	5.0517	-2.2506	-13.8529
118.882	114.517	1050.03	5.6286	-2.7444	-14.8143
158.35	50.1124	1033.52	4.7152	-0.673	-15.7233
175.214	1.196	1083.1	5.0692	-2.4428	-15.9898
227.659	6.5182	1148.94	3.7538	-2.421	-16.204
212.768	-1.8538	1112.94	2.7618	-2.1981	-16.2433
181.971	15.6676	1106.9	1.8398	-1.9009	-16.0816
227.3	0.1196	1042.13	0.9745	-2.5128	-16.051
162.955	18.1792	1060.25	1.1318	-1.8922	-16.2083
211.632	15.4284	973.066	0.5113	-1.7393	-16.1952
204.994	10.5846	957.518	1.4115	-1.2848	-16.2127
217.911	12.259	1002.37	2.3379	-1.1843	-16.1297
231.785	-7.8936	1018.57	2.032	-1.0794	-16.0423
187.892	-13.9334	1048.71	2.1413	-0.9352	-16.0641
205.413	-4.0066	993.996	1.1143	-0.8041	-16.0947
200.091	9.867	933.538	1.2586	-0.4151	-16.1122
195.187	15.548	933.657	1.9053	-0.6774	-16.0466
199.852	20.0928	956.979	2.3817	-0.8827	-16.1559
197.041	17.2224	978.747	2.5433	-0.6249	-16.3788
205.891	17.8802	932.94	2.3161	-0.4763	-16.5492
183.765	14.8902	939.697	2.858	-0.4151	-16.5579
197.998	10.4052	940.893	3.0415	-0.7036	-16.7327
211.094	8.9102	948.607	3.2382	-0.8216	-16.9119
202.303	4.485	946.156	3.1114	-1.027	-17.0386
206.968	18.6576	942.089	2.8886	-1.4596	-17.1042
216.057	17.4616	957.876	2.8798	-1.7742	-17.1872
225.685	-0.3588	916.196	2.5608	-1.5732	-17.279
206.31	20.6908	1014.75	3.4873	-2.2593	-17.2746
223.233	11.2424	969.836	2.1151	-2.705	-17.279
187.114	39.1092	1015.76	3.0546	-1.8791	-17.4887
225.566	28.704	1001.05	2.4166	-2.4297	-17.5193
214.383	20.4516	1008.77	2.4822	-2.3423	-17.5761
217.313	6.6378	1014.87	2.0146	-2.4909	-17.7247
229.692	38.9896	1012.47	1.9053	-2.6351	-17.7946
212.768	19.6144	995.251	1.4727	-2.7444	-17.799
221.021	26.6708	981.796	1.6693	-2.6613	-17.8864
222.396	13.754	1002.55	1.8004	-2.5696	-18.0306
219.705	8.1328	996.089	1.4465	-2.7356	-18.0481
230.589	10.8238	995.072	1.5645	-2.5827	-18.1617
233.22	5.5016	993.816	1.4989	-2.5958	-18.2928
238.781	-5.0232	994.474	1.394	-2.4297	-18.3977
254.688	-1.6146	993.637	1.4639	-2.3117	-18.4632
255.047	-10.2856	978.806	1.3372	-2.1588	-18.4501
254.927	-9.4484	974.202	1.4596	-2.185	-18.4589
258.037	-4.9036	964.694	1.6344	-2.1719	-18.4501
258.097	-8.372	973.185	1.7524	-2.1107	-18.5201
254.987	4.1262	968.82	1.7393	-2.067	-18.4895
244.881	2.8704	974.501	1.8529	-2.102	-18.5288
257.858	4.1262	970.016	1.9097	-2.1107	-18.5769
247.452	17.94	967.923	1.8704	-1.9359	-18.6512
259.173	9.6278	971.989	1.9359	-1.9883	-18.7211
253.133	6.279	992.56	2.0976	-1.7567	-18.8128
266.588	3.5282	969.179	1.7349	-1.7655	-18.756
261.326	-10.2258	965.949	1.7305	-1.7611	-18.6555
265.333	4.9036	994.653	2.1806	-1.8267	-18.5288
264.854	-1.3754	1004.7	1.8878	-1.5557	-18.4021
263	-7.7142	995.132	1.7655	-1.4203	-18.2797
267.605	2.5714	994.713	1.6606	-1.5426	-18.1748
253.492	0.2392	1015.46	1.5994	-1.6256	-17.9957
262.881	4.3654	1005.72	1.1493	-1.5907	-17.8602
254.569	6.1594	1010.86	0.8958	-1.5645	-17.6985
238.961	10.2258	990.766	0.3146	-1.5426	-17.5499
247.991	17.4616	962.959	0.2753	-1.4421	-17.362
242.369	16.2656	973.664	0.9264	-1.1712	-17.2921
251.878	-0.1196	997.464	1.0575	-1.1231	-17.2528
257.14	1.4352	996.388	0.7866	-1.0663	-17.0823
263.778	0.7176	953.81	0.4501	-1.1143	-17.0255
252.894	2.3322	963.557	0.8259	-1.4771	-16.925
257.439	1.7342	954.109	0.6293	-1.9971	-16.7633
244.941	-3.887	957.876	0.5419	-2.3379	-16.6322
238.722	8.1926	956.86	0.7385	-2.386	-16.5973
233.041	0.7176	953.93	0.9133	-2.5652	-16.641
236.808	-2.7508	963.258	1.1624	-2.4516	-16.5798
247.931	-0.4784	964.454	1.5033	-2.2331	-16.453
256.961	-17.4616	958.953	1.5339	-2.0233	-16.3656
257.917	-19.0164	969.956	2.0189	-2.1238	-16.1515
260.01	-17.5812	999.497	2.3117	-2.0714	-15.9592
269.818	-21.4084	966.667	2.0015	-1.713	-15.8194
255.944	-18.1194	970.674	2.3554	-1.6912	-15.4785
259.472	-11.2424	956.92	2.0932	-2.2068	-15.1683
250.562	-3.8272	970.016	2.1937	-2.4297	-14.9104
242.668	24.0396	986.341	2.4472	-2.2768	-14.6395
250.323	18.4782	957.338	2.1806	-2.0714	-14.3991
232.203	13.0364	978.866	3.0197	-2.0058	-14.0801
241.712	8.97	986.939	3.1508	-1.9097	-13.7524
250.921	13.2756	1005.12	3.3867	-1.7218	-13.3984
248.29	8.671	998.182	2.9366	-1.547	-13.0313
241.532	15.1892	1014.27	2.6701	-1.8398	-12.6774
222.815	25.8934	1010.08	2.3074	-1.9009	-12.2578
230.17	36.179	993.756	2.2855	-1.9359	-11.8121
221.081	43.654	996.388	2.7138	-1.6519	-11.4669
234.237	29.2422	970.973	2.6351	-1.4465	-11.1654
238.423	39.6474	974.082	2.9061	-1.3678	-10.6715
226.104	33.6076	991.962	3.4348	-1.3591	-10.1996
215.22	32.8302	979.105	3.3212	-1.1537	-9.7364
230.828	50.6506	981.198	3.1945	-1.4639	-9.1989
205.174	69.966	1025.63	3.4173	-1.5645	-8.7007
198.775	64.9428	999.378	2.9104	-1.3023	-8.2943
189.088	65.8398	974.86	2.8755	-1.1056	-7.8835
190.343	76.6038	974.979	3.1114	-1.4858	-7.4071
185.44	77.6204	998.66	3.3999	-1.7786	-7.1056
183.227	86.4708	983.71	3.3693	-1.3591	-6.8172
184.304	75.348	964.993	3.3605	-1.4989	-6.4938
177.307	82.6436	967.086	3.4173	-1.984	-6.1093
175.633	87.1884	968.88	3.1814	-2.4297	-5.8689
164.151	87.0688	1005.66	3.2775	-2.74	-5.6941
154.164	110.69	1025.81	3.0415	-2.5652	-5.5368
150.098	84.7964	1001.77	2.4953	-2.2724	-5.4669
162.178	99.9258	1027.06	3.0415	-2.1631	-5.3926
160.922	88.9824	1009.3	2.7269	-1.7349	-5.3707
176.29	91.7332	980.481	2.2331	-1.5557	-5.3052
171.566	82.4044	984.308	1.9228	-2.0146	-5.1129
146.331	96.9358	1005.6	2.2593	-1.8572	-5.0473
159.367	87.607	977.85	1.5732	-1.311	-5.0255
155.48	90.298	966.009	1.6125	-1.2542	-5.0255
147.168	83.0622	1010.44	2.3729	-1.2367	-5.0605
155.301	71.1022	1020.67	2.2637	-0.7604	-4.9075
166.782	64.0458	1028.26	2.1719	-0.284	-4.6584
152.968	72.4776	1015.52	2.6701	0.1879	-4.3918
155.241	44.9098	1004.88	2.4472	0.3015	-4.2214
154.762	52.6838	997.763	2.4166	0.5594	-4.0597
154.762	71.76	989.929	2.3948	0.4938	-3.7407
148.364	71.76	981.019	2.1806	0.3103	-3.4217
138.018	70.4444	1003.2	2.3598	0.4283	-3.1639
128.45	80.6702	951.896	2.0058	0.909	-2.9847
130.663	101.839	917.452	1.7436	1.0313	-2.7181
102.736	82.2848	917.452	2.7356	0.52	-2.6089
107.999	100.643	926.063	3.1726	1.0575	-2.5783
113.381	105.009	945.079	3.1988	1.2061	-2.4953
128.391	111.108	921.04	2.74	1.0925	-2.2549
123.367	84.617	900.588	4.2214	0.9133	-2.0845
106.743	96.876	978.268	3.0284	0.721	-1.9141
112.005	88.0854	978.926	2.9323	0.4588	-1.8572
103.275	95.3212	1005.12	2.0495	0.52	-1.8048
102.856	101.959	1012.83	1.1843	0.1049	-1.5645
93.9458	119.361	985.384	1.0051	0.0087	-1.4071
62.491	117.029	963.797	1.7524	-0.1092	-1.3853
61.7734	121.813	1007.81	1.0969	0.0699	-1.3634
91.6734	119.181	983.77	0.9352	-0.284	-1.276
70.5042	114.397	982.394	0.472	-0.5725	-1.2105
74.0922	110.51	915.299	1.2236	-0.909	-1.2017
48.9164	104.291	953.212	1.4421	-1.2717	-1.1668
62.6106	92.6302	973.783	1.6125	-1.3285	-1.1012
59.7402	93.6468	1001.35	1.0663	-1.3722	-1.0051
63.089	67.0358	957.159	1.0663	-1.0444	-0.9701
51.9662	65.4212	927.139	1.512	-1.7174	-0.8653
35.7604	45.5676	984.188	2.1151	-1.3241	-0.8784
22.1858	37.9132	989.212	1.9709	-1.3241	-0.8478
8.7906	26.611	1010.08	1.6387	-1.3154	-0.8041
-22.0064	19.7938	991.185	0.756	-1.1843	-0.791
-29.1226	16.9234	1000.33	0.8259	-1.1362	-0.6599
-50.0526	23.023	981.557	0.6905	-0.5637	-0.6599
-20.033	27.2688	994.235	1.2979	-0.8478	-0.6074
-42.757	14.7706	999.736	1.3984	-0.0437	-0.7036
-33.488	-21.2888	1010.68	1.027	-0.236	-0.8434
-19.4948	38.0328	987.717	0.992	-0.0131	-0.8216
-11.661	9.3288	948.787	0.6817	-0.5244	-0.6031
-47.4214	19.3752	1045.12	2.2811	-0.6074	-0.4894
-15.4882	-13.6942	943.225	0.1617	-0.7953	-0.472
-13.8736	29.0628	999.198	1.2323	-0.8915	-0.4588
-15.7872	20.9898	950.401	0.284	-1.4334	-0.3889
-54.4778	19.3752	948.069	0.9221	-1.4989	-0.2535
-35.4614	34.385	914.282	1.2192	-1.4028	-0.3321
-22.6642	13.9334	895.266	1.5339	-1.8835	-0.2797
-34.6242	27.4482	932.043	2.6482	-1.866	-0.2491
-16.445	17.641	932.402	2.6701	-2.0146	-0.1311
-26.6708	12.0198	994.534	3.9024	-1.8441	-0.1224
-23.8602	8.7308	1025.21	3.8674	-1.5251	-0.0699
-12.0198	2.093	965.65	3.1988	-1.1231	-0.0568
6.877	-13.754	1007.03	3.5091	-1.512	0.1136
-28.5246	24.0994	1065.1	3.78	-1.1712	0.2054
-7.475	-4.4252	998.54	1.9927	-1.1231	0.2884
-37.5544	33.9664	1032.69	2.6526	-1.0007	0.319
-35.5212	22.0064	997.225	1.4639	-1.3591	0.2709
-45.2686	57.1688	1024.13	1.9228	-0.9789	0.1792
-39.3484	41.86	945.916	0.8041	-0.6555	0.1748
-64.584	36.4182	977.132	1.7043	-0.5725	0.0787
-38.9298	29.003	979.644	1.595	-1.1668	0
-42.6972	24.6974	971.272	1.4071	-0.8085	-0.0306
-50.1124	15.6078	1003.56	1.7698	-1.0838	-0.153
-23.0828	16.8038	993.218	1.0881	-1.1624	-0.1267
-22.9034	16.3852	989.989	1.3066	-1.1493	-0.0524
-33.787	4.784	977.192	1.1406	-1.2804	0.1049
-19.9134	6.2192	954.647	1.1275	-1.4465	0.1835
-24.6376	8.4318	958.594	1.3066	-1.3809	0.2098
-21.827	18.3586	932.581	1.0401	-1.9621	0.3365
-35.8202	20.8702	947.89	1.394	-2.1806	0.3846
-42.9364	32.9498	962.959	1.6038	-2.22	0.3409
-42.0992	18.4782	952.734	1.5251	-2.0277	0.3802
-35.7604	26.3718	950.401	2.102	-2.0408	0.3452
-31.4548	18.7772	950.461	2.5521	-2.268	0.2535
-34.8036	14.1128	991.604	3.1857	-2.4035	0.1617
48.4978	63.687	927.319	2.469	-2.4647	0.083
-37.076	30.1392	972.707	3.295	-2.9017	0.1049
21.1094	46.7038	965.591	3.413	-3.059	0.0787
20.5114	76.843	1007.45	3.9243	-2.6832	0.118
52.026	63.9262	959.431	3.5921	-3.0415	0.1442
22.4848	80.2516	987.298	4.287	-2.4559	0.1267
59.6804	81.1486	955.963	4.0816	-2.5827	0.1267
67.9926	83.9592	985.265	4.4967	-2.22	0.0175
84.5572	89.3412	1012.59	4.1908	-3.1202	-0.0568
49.9928	103.932	980.421	3.1027	-3.0284	0.0393
58.1256	120.557	983.112	3.3212	-3.6271	0.1617
48.9164	137.181	977.311	3.732	-2.8711	0.1617
56.0924	103.394	1043.09	4.8551	-1.8485	-0.0699
84.0788	89.2216	1048.29	4.1646	-1.2892	-0.319
73.3148	71.2816	1040.94	3.7713	-1.4683	-0.2447
50.531	68.9494	1098.77	3.8631	-1.2935	-0.1617
72.8962	77.0822	1057.5	2.4647	-1.0357	-0.0918
64.1056	95.381	1009.54	1.6125	-0.472	0.0306
46.2852	102.258	1029.16	1.9272	-0.6031	0.0918
40.066	80.6104	992.082	1.5645	0.035	-0.0218
37.0162	98.9092	1016	2.1195	0.319	-0.1267
68.8896	81.8662	942.328	1.193	0.0568	-0.0961
47.84	108.358	991.245	2.3205	-0.0568	0.0175
84.2582	68.77	901.844	1.0706	-0.5419	0.1311
33.8468	90.4176	981.856	2.3598	-0.7298	0.083
33.0096	83.6004	962.122	1.5688	-1.5732	0.1224
31.096	116.431	919.425	1.9752	-0.3846	-0.0131
47.242	108.238	911.89	2.9017	-0.5812	0
65.6006	81.5074	917.272	3.2513	-0.6555	-0.0524
55.1954	92.1518	1004.88	4.7895	-0.1005	-0.3103
82.524	69.1886	978.926	3.4217	-0.4151	-0.319
66.8564	84.3778	968.88	3.0808	-1.0794	-0.2054
60.4578	94.6634	942.986	2.6089	-1.512	-0.2141
53.0426	121.274	954.109	3.0459	-1.4902	-0.1704
32.7106	104.829	962.78	2.74	-1.6956	-0.118
47.4812	104.471	1014.09	3.1901	-1.7698	-0.2928
48.3782	102.497	1034.9	3.0109	-1.3023	-0.5113
55.315	99.268	1012.17	2.268	-1.2892	-0.6162
66.0192	115.534	1001.89	2.1937	-1.3372	-0.5419
62.3116	101.78	986.102	1.8441	-1.1624	-0.4588
48.7968	103.574	1000.75	2.0233	-0.8347	-0.402
80.4908	101.301	977.252	1.6606	-1.3722	-0.3452
63.3282	99.6268	1003.26	2.0714	-1.3984	-0.3846
80.2516	99.567	986.82	1.595	-1.4465	-0.437
82.225	110.809	986.82	1.5033	-1.394	-0.2928
71.9394	101.72	975.458	1.6213	-1.4246	-0.1486
59.9196	104.351	981.796	1.9446	-1.6387	-0.0699
77.3812	113.022	974.62	1.9184	-1.8747	-0.0568
70.8032	114.098	945.617	1.7917	-1.5295	-0.0437
87.607	116.311	936.468	1.9752	-1.7393	-0.1748
72.5374	109.195	950.88	2.2287	-1.9184	-0.1573
65.8996	103.215	982.394	2.6701	-2.185	-0.1092
67.2152	113.68	998.301	2.6264	-1.8267	-0.1267
90.7166	111.647	911.531	1.831	-1.2804	-0.1442
68.5906	110.75	992.859	3.0852	-1.5863	-0.1835
83.0024	106.205	1016.96	2.6482	-1.949	-0.2229
63.3282	117.985	1030.95	2.2637	-1.63	-0.2578
75.7666	116.311	981.976	1.4814	-1.6912	-0.2622
77.3214	119.899	970.614	1.6038	-1.5776	-0.2666
64.4046	122.411	1009.01	1.9228	-2.15	-0.3671
63.6272	116.61	1010.74	1.8441	-1.8004	-0.555
71.162	109.853	998.72	1.6956	-1.4421	-0.756
92.989	114.876	982.574	1.5076	-1.2979	-0.839
84.9758	98.6102	973.664	1.4902	-1.4814	-0.8827
85.9326	114.816	987.717	1.6956	-1.429	-0.9308
84.617	96.3976	964.993	1.0881	-1.4246	-0.9614
89.2814	112.304	943.345	1.1012	-1.3372	-1.0532
96.9956	112.843	955.724	1.5382	-1.5033	-1.0357
83.1818	100.225	977.61	1.9709	-1.0881	-1.0226
112.902	97.5936	975.039	1.9272	-0.992	-0.9177
88.0256	95.7398	971.152	2.2156	-0.5943	-0.8958
105.906	84.4974	982.036	2.539	-0.6031	-0.9789
103.693	92.4508	994.893	2.3904	-0.4195	-0.992
100.942	90.1784	973.604	2.1894	-0.5113	-0.8565
91.9724	108.776	989.511	2.6264	-0.0437	-0.839
93.587	95.9192	970.793	2.4516	0.0743	-0.7953
100.703	95.979	965.052	2.4079	0.118	-0.7735
89.7	108.118	969.717	2.6264	0.0874	-0.9002
96.5172	118.284	943.166	2.1413	-0.2972	-0.9046
79.1752	114.218	966.787	2.5827	-0.4632	-0.8434
83.421	125.58	974.979	2.622	-0.1748	-0.8565
78.637	114.756	938.561	2.4472	-0.1442	-0.8784
74.3912	108.956	977.192	2.8623	-0.6948	-0.909
90.0588	114.218	961.106	2.657	-0.5987	-1.1143
82.1652	117.148	976.713	2.5433	-0.4414	-1.1012
101.241	107.281	960.508	2.3117	-0.6905	-0.9352
85.0954	107.461	984.368	2.7575	-0.2272	-0.9527
95.381	99.0288	974.262	2.4865	-0.4239	-0.8784
102.437	105.308	968.939	2.1588	-0.6555	-0.8216
93.3478	119.122	964.395	1.9927	-1.0095	-0.8696
87.6668	124.085	982.454	2.15	-1.311	-0.7779
71.7002	120.318	973.365	2.4035	-1.2105	-0.6555
80.4908	123.846	964.096	2.7007	-0.9964	-0.7735
92.5106	118.344	972.587	3.0896	-1.2454	-0.8216
93.0488	113.62	1006.08	3.4173	-1.2629	-0.9395
92.5704	109.853	986.7	2.74	-1.3634	-0.9395
98.4308	117.029	966.189	2.3205	-1.8529	-0.8303
71.5806	124.324	968.461	2.3817	-1.8223	-0.8303
85.514	121.394	943.644	2.0364	-2.0452	-0.8259
90.1186	136.105	961.345	2.6613	-2.1063	-0.909
85.6336	118.763	1004.94	2.9716	-2.3642	-1.0532
80.73	122.949	1002.37	2.5128	-2.2243	-0.9789
90.597	113.321	1003.2	2.3161	-2.2768	-0.8827
77.6204	124.264	1013.37	2.6133	-2.1326	-0.8172
94.5438	106.324	1017.74	2.3817	-2.3248	-0.8434
87.308	115.235	1021.09	2.268	-1.9796	-0.8915
110.57	116.072	999.617	2.2724	-1.5076	-0.9177
95.3212	107.281	992.68	2.2811	-1.3328	-0.8958
103.514	96.7564	973.903	2.1326	-1.5601	-0.7647
95.8594	123.607	972.288	2.1107	-1.6038	-0.7079
96.9956	117.985	950.7	1.7524	-1.8354	-0.7516
90.298	126.537	1011.04	2.3948	-1.9578	-0.7953
77.5008	125.7	1008.89	2.1369	-1.7349	-0.791
84.8562	114.577	974.441	1.9796	-1.5688	-0.7779
84.7366	116.789	971.331	2.4035	-1.7961	-0.8915
85.0954	109.912	1006.37	2.823	-1.8267	-1.0007
89.3412	107.819	980.122	2.032	-2.0845	-0.9658
83.0622	115.115	980.242	2.3511	-1.9752	-0.9527
91.195	112.723	999.258	2.5652	-1.7524	-0.957
105.188	107.76	993.697	2.2025	-1.7261	-0.9264
95.6202	104.889	983.471	1.4945	-1.9446	-0.9658
95.7996	122.291	990.946	1.3503	-1.7043	-0.9395
81.4476	108.716	993.697	0.7779	-1.4203	-0.8827
84.019	112.663	984.188	0.3321	-1.5514	-0.7516
73.6736	121.813	998.421	0.5899	-1.4377	-0.7997
68.2916	106.384	1007.99	0.236	-0.9964	-0.8871
81.627	106.384	975.039	-0.284	-0.638	-0.8871
73.6736	108.716	1009.48	0.5331	-0.6031	-0.9002
78.2782	94.8428	1010.56	0.2535	-0.4545	-0.9046
98.0122	95.8594	987.119	0.0175	-0.4108	-0.8521
95.5604	115.653	977.85	0.1617	-0.721	-0.8085
88.3246	102.497	944.661	-0.2797	-1.0925	-0.8128
80.132	111.826	886.356	0.1486	-1.5907	-0.6948
63.6272	108.178	849.16	0.8041	-1.4596	-0.6555
72.956	94.0056	874.695	1.5819	-2.6439	-0.7254
93.1684	96.577	918.707	2.0058	-3.7538	-0.7516
68.77	103.514	982.215	2.1719	-4.3569	-0.6992
81.0888	131.381	871.346	0.9789	-5.209	-0.4239
38.571	147.168	963.557	4.3918	-4.8988	-0.2578
86.3512	68.8298	1051.94	5.7334	-2.539	-0.5899
121.872	47.3616	1013.61	4.0073	-3.6052	-0.6074
121.693	93.7664	1035.14	3.4785	-4.7502	-0.3846
55.2552	113.859	1064.44	3.6533	-3.8893	-0.118
76.843	108.118	1035.08	2.6701	-2.3074	-0.0393
92.4508	110.869	1015.82	3.1508	-0.402	-0.1966
73.6138	73.3148	1086.92	3.4567	0.354	-0.3103
106.145	73.9128	1126.93	2.4297	0.2666	-0.319
119.54	80.1918	1084.35	-0.0918	0.3583	-0.3627
20.7506	122.171	1221.24	-0.9483	-1.2323	-0.3103
34.086	141.547	1002.13	-3.3474	0.4195	-0.2185
17.4616	123.308	1035.5	-1.5557	4.0641	-0.3583
83.1818	86.0522	970.434	-1.9796	2.8886	-0.3277
92.6302	54.9562	976.355	-1.9796	2.587	-0.5069
65.8398	147.527	968.521	-0.8478	3.968	-0.7385
129.347	76.245	711.142	-3.6577	3.7145	-0.5637
77.7998	84.2582	730.517	-0.1398	3.6926	-0.2884
74.2118	62.3116	725.254	0.5506	2.823	-0.1092
67.5142	64.3448	810.35	2.2068	2.1719	-0.201
85.3944	66.4976	845.333	1.9272	1.748	-0.2666
99.0886	108.059	977.012	1.665	-0.6074	-0.2229
79.6536	109.733	809.931	-0.8216	-0.5069	-0.3627
0.1794	153.686	841.386	0.7123	-0.8696	-0.2491
46.8234	99.4474	872.542	0.3933	-3.1814	-0.0087
15.9666	127.793	953.332	1.5295	-1.9534	-0.3277
73.6138	109.853	938.98	0.9745	-2.1937	-0.6118
66.677	134.55	938.382	1.0663	-1.9796	-0.7079
78.338	88.504	959.252	1.3154	-1.8704	-0.6992
66.8564	85.1552	947.411	1.4334	-1.3853	-0.6031
85.7532	76.7832	989.929	2.0102	-1.0969	-0.4851
87.7266	79.4144	1008.17	1.6344	-0.8958	-0.3846
88.205	83.0622	1026.59	1.6169	-0.6293	-0.4195
55.1356	89.1618	1046.08	1.228	-0.3933	-0.4108
80.431	91.7332	983.889	0.2229	-0.3365	-0.5113
44.4314	93.1086	982.933	0.4414	0.6774	-0.7167
81.6868	98.969	993.637	0.6162	0.3146	-0.7123
77.2018	74.8696	945.797	-0.472	0.5463	-0.8172
59.2618	91.7332	999.557	0.6205	0.3146	-0.957
80.5506	87.6668	912.847	-1.2498	0.5025	-1.0182
75.8264	101.78	947.232	-0.1092	0.0961	-1.0969
67.9926	90.9558	909.797	-0.7123	0.5506	-1.1712
84.916	86.9492	915.359	-0.1005	0.3933	-1.2804
80.3114	89.0422	929.172	0.3234	0.2884	-1.3197
98.8494	71.8198	922.594	0.1136	0.2491	-1.4683
118.643	72.1188	903.997	0.1224	0.0961	-1.5601
101.899	78.1586	875.771	0.1092	0.1573	-1.4508
90.7166	86.0522	895.983	0.8784	-0.6031	-1.3765
81.9858	70.6836	926.84	1.1012	-0.5943	-1.3897
117.029	70.0258	948.428	1.1449	-1.5164	-1.394
103.574	102.138	948.727	0.721	-2.0932	-1.311
86.0522	87.2482	904.355	0.4545	-2.1063	-1.2236
88.7432	100.404	944.601	1.6475	-2.4166	-1.2105
90.7166	86.8894	935.75	1.6825	-3.4348	-1.1843
79.2948	90.8362	956.561	2.2855	-3.413	-1.2673
109.673	96.5172	974.142	2.7356	-3.3693	-1.3416
101.78	88.3844	960.747	2.4953	-3.5135	-1.2717
89.2216	81.926	970.674	3.0677	-4.0073	-1.228
99.0288	79.7732	1004.88	2.9279	-4.1209	-1.1668
87.6668	88.1452	1077.66	2.9803	-4.3831	-1.1668
99.866	79.0556	1053.56	1.6737	-4.6934	-1.1493
80.5506	99.9258	1049.55	1.2804	-4.4924	-1.1493
62.4312	101.062	1086.86	1.075	-4.8769	-1.0969
77.5606	72.358	1080.71	0.1704	-4.4487	-1.1056
85.2748	99.6268	1072.75	0.2928	-3.2119	-1.1799
97.2348	89.0422	1002.01	-0.5113	-2.7793	-1.1143
87.009	74.6902	1068.75	0.9964	-2.2549	-1.0313
113.859	62.3714	1038.73	0.3846	-1.5076	-0.992
128.63	56.0924	969.717	-0.0612	-0.9439	-0.9046
105.906	60.5176	965.949	0.201	-1.3809	-0.673
101.899	73.6138	983.83	0.1267	-2.22	-0.4457
68.7102	73.4942	979.165	-0.0481	-2.4122	-0.4632
92.5704	82.823	954.528	-0.2316	-2.8973	-0.5506
66.8564	112.245	930.309	-0.0393	-2.9061	-0.6074
69.3082	80.0124	911.173	0.0743	-4.0029	-0.6293
59.8	92.6302	927.618	1.0226	-4.0903	-0.5856
79.2948	88.4442	912.847	1.6344	-4.1078	-0.7254
86.5904	83.1818	972.707	2.7487	-4.3438	-0.7604
96.6966	67.5142	944.481	2.3379	-4.2739	-0.673
69.2484	83.0622	1025.63	3.8412	-3.413	-0.7123
96.7564	33.9066	1013.73	3.2338	-2.5477	-0.8434
100.643	39.0494	1071.38	3.6533	-2.1981	-0.8653
89.2216	42.3384	1082.32	2.5477	-1.7218	-0.7822
89.7598	41.6208	1094.1	1.8529	-0.6861	-0.8259
93.587	41.4414	1060.67	0.3583	-0.2491	-0.7997
69.8464	43.654	1079.75	-0.0087	-0.0437	-0.7997
54.5376	47.6606	1094.1	-0.6948	0.5025	-0.7735
51.6672	59.6804	1051.46	-1.8922	1.1318	-0.7298
64.1654	70.1454	936.289	-2.4253	1.5732	-0.8303
62.0724	62.0126	882.469	-1.2105	2.8143	-1.0051
82.8828	40.2454	872.123	-0.3758	2.1457	-0.9483
69.667	34.385	865.904	0.3627	2.1981	-0.9221
74.8696	25.4748	828.17	0.7691	2.504	-0.992
92.9292	25.5346	829.605	1.5907	1.429	-0.8827
87.308	25.0562	836.423	2.0408	0.3277	-0.6905
52.3848	25.3552	881.093	2.6001	-0.1136	-0.6031
48.7968	36.4182	897.359	2.386	-1.0095	-0.5419
36.478	38.3318	928.275	2.4472	-1.9883	-0.6555
25.714	47.7802	958.474	2.8536	-2.4822	-0.7691
-2.093	30.9166	1009.24	2.9891	-2.3817	-0.7385
11.6012	23.5014	996.986	2.9847	-1.8966	-0.8172
12.857	-2.8106	999.019	2.7618	-1.6169	-0.8259
-12.7972	-15.3686	1062.83	3.2207	-2.1195	-0.8259
-20.6908	-17.4018	1106.12	2.6744	-1.4115	-0.9046
-10.8238	-10.2258	1084.47	1.5645	-1.2848	-0.9133
-2.392	-14.5314	1021.2	0.8609	-0.9352	-0.8521
-30.3186	-11.362	1068.45	1.3416	-1.4246	-0.8827
-20.4516	-20.8104	1040.76	0.3802	-1.3853	-0.9701
-13.3354	14.1726	1014.87	0.4763	-1.1056	-0.9439
-19.3154	-28.5246	949.744	0.402	-0.5375	-0.9527
4.784	-18.7174	959.072	1.1537	-1.2061	-0.8958
7.1162	-20.5114	940.714	0.7647	-1.7917	-0.8958
13.9334	-27.0296	898.794	0.5725	-1.8791	-0.839
-22.5446	11.661	987.956	1.7961	-2.421	-0.7167
5.5016	-41.86	940.534	0.3365	-3.2862	-0.721
-26.1326	6.7574	1023.6	1.7567	-3.2119	-0.6817
-10.8836	-11.2424	992.74	0.638	-3.4567	-0.6686
-23.8602	-5.1428	1014.51	1.3984	-3.0328	-0.7079
5.7408	-31.1558	951.239	1.3372	-2.0452	-0.8128
-4.5448	-15.7872	1019.95	2.8405	-1.9578	-0.7997
22.126	-43.7138	1010.92	2.3598	-2.3642	-0.7036
0.7774	-26.611	978.268	2.067	-1.5339	-0.6948
-4.6046	-14.95	1011.94	2.8973	-1.6781	-0.7604
22.126	-34.8036	960.089	1.5382	-2.0058	-0.6468
-23.023	-13.455	1010.8	2.7531	-1.9272	-0.6599
-14.1726	-17.1626	997.404	2.1894	-1.7436	-0.8259
-1.3754	-21.3486	975.338	2.0714	-1.4902	-0.8871
-10.5846	-30.199	981.079	2.2549	-1.3547	-0.9264
20.0928	-1.5548	1001.77	2.6744	-1.3023	-0.909
-6.9368	-53.7602	996.866	2.7356	-1.4115	-0.9395
-2.5116	-28.0462	965.292	2.4647	-0.2054	-0.9395
-13.754	-52.5044	982.693	2.8449	-0.555	-0.9352
32.2322	-1.794	973.723	2.3554	-0.4064	-0.874
9.1494	-24.4582	1009.72	3.1945	-0.3671	-0.9002
-18.3586	-20.5712	962.481	2.9148	0.52	-0.8434
15.4882	-62.2518	985.863	2.6832	0.6205	-0.8521
7.8936	-12.1992	966.607	3.3168	0.7866	-0.8565
24.3386	-39.767	939.219	1.9403	0.839	-0.8784
-44.85	-30.9764	1113.36	4.5623	-0.0524	-0.8871
9.2092	-13.6344	831.758	0.3059	2.0058	-0.8478
-39.169	-1.6744	1044.47	3.8587	1.0138	-0.8871
28.405	-56.0326	798.091	0.8216	1.6082	-0.9264
-14.4716	52.5642	1158.33	5.6854	-0.5025	-0.9876
-47.6606	-113.082	784.696	0.3321	1.7174	-1.0095
-6.279	52.0858	1092.19	5.965	0.2491	-1.0182
-48.7968	-134.251	808.077	0.7342	1.4858	-1.0444
-9.568	11.6012	1021.62	6.6468	-0.1704	-0.992
-69.8464	-102.079	953.81	2.1894	1.075	-1.0357
2.3322	11.1228	923.91	4.9731	-0.3933	-0.992
-8.073	-14.2922	910.395	2.5433	0.5463	-0.9964
-10.465	-21.8868	934.973	5.2265	-1.0794	-1.0357
-7.1162	4.9634	1065.88	4.9468	-1.4945	-0.9832
-16.744	-33.488	978.388	3.9374	-1.1755	-0.8871
-18.1194	6.578	1005.12	4.8594	-0.8653	-0.8784
-18.1194	-31.6342	1002.01	4.2214	-1.4552	-0.8696
3.4684	-12.4384	1033.7	4.7327	-1.6213	-0.8915
-21.8868	-1.9136	1026.29	4.0597	-1.9403	-0.8434
-6.9368	-1.9136	1016.42	4.1209	-1.5994	-0.7997
-15.1892	-0.299	995.969	3.9155	-1.8966	-0.7822
15.0098	17.2822	995.969	4.4705	-1.5732	-0.839
-1.3754	16.2656	992.62	4.5667	-1.7742	-0.7779
-3.8272	6.3388	997.285	4.724	-1.9359	-0.7429
-3.1096	-5.1428	1026.65	4.7983	-1.8048	-0.7079
-4.2458	-2.9302	1043.09	4.3219	-1.6868	-0.6555
-17.2822	-9.8072	1048.65	4.0597	-1.831	-0.7167
-23.322	-9.0298	1034.96	3.7014	-1.6693	-0.7079
-21.4084	10.9434	1045.12	3.0721	-1.3591	-0.8085
-17.8204	7.2956	999.198	3.3256	-1.1624	-0.8259
-23.92	14.1128	1007.75	2.9803	-1.1493	-0.8609
-8.1328	12.9168	992.142	3.5441	-0.6992	-0.8696
-26.1326	5.681	1016.24	3.1377	-0.1398	-0.8871
-5.1428	3.7076	1031.43	2.421	-0.1267	-0.8609
12.857	-9.4484	996.447	2.7618	-0.4938	-0.8216
-13.9334	3.4086	1034.06	1.8267	-0.4545	-0.7385
-15.847	-5.6212	1003.15	2.2942	-0.0568	-0.7385
-22.9632	21.7074	1015.05	1.4334	0.3059	-0.8216
-0.299	-0.4186	945.617	2.067	0.153	-0.8521
-11.0032	12.259	939.817	2.067	0.2316	-0.9002
-10.8238	2.3322	923.312	1.8747	0.1398	-0.9614
-11.7806	1.1362	974.74	2.6875	0.5899	-0.9264
3.3488	7.0564	917.093	1.9971	0.5899	-0.909
-3.4086	-0.9568	923.192	2.1631	0.1573	-0.9133
-9.9866	7.7142	959.312	2.6264	-0.1573	-0.9483
-18.4184	7.3554	972.468	2.3729	-0.0874	-0.9483
-7.8936	12.259	969.298	2.5171	-0.0218	-1.0444
-14.4118	8.1926	979.404	2.7968	0.2622	-1.1406
-2.99	-0.4784	992.979	2.8274	-0.3059	-1.1318
1.794	3.3488	945.737	2.4079	-0.4982	-1.0925
-10.8836	18.7174	941.79	2.7181	-0.5943	-1.0226
0.598	4.3654	931.684	2.7356	-0.9614	-1.0532
-2.1528	11.063	953.391	3.1027	-1.5732	-0.9832
-20.3918	12.9766	973.006	3.2119	-1.831	-0.992
-19.136	21.3486	983.052	3.5703	-2.0015	-1.0226
-1.794	14.4118	974.979	3.2862	-1.7524	-1.0575
-14.1128	7.5348	996.328	3.6883	-1.4771	-1.0881
2.2126	-2.1528	994.175	3.6926	-1.4334	-1.1012
-6.0996	6.3388	1058.46	4.0772	-1.6519	-1.0357
-8.4916	-4.4252	1045.3	3.3518	-1.6519	-1.0357
-1.794	5.083	1011.58	2.7662	-1.3678	-1.0925
-10.5248	17.5214	1012.35	2.3467	-1.9359	-1.0051
-21.2888	14.8304	995.132	2.3074	-1.8441	-0.992
-21.3486	20.033	1024.43	2.976	-1.7961	-1.0051
-12.9766	9.9268	1013.97	2.622	-1.6825	-1.1231
-4.8438	13.156	990.826	2.4297	-1.6387	-1.1406
-40.664	-13.9932	966.428	2.2986	-1.0619	-1.1886
32.2322	31.8734	959.969	2.9104	-1.7087	-1.1755
-33.6076	-15.0098	1020.19	3.0022	-1.3023	-1.1275
13.6344	8.671	981.796	2.2855	-1.1886	-1.0532
-11.661	-8.6112	1018.63	1.9883	-1.2323	-1.0488
-5.2026	32.2322	993.816	2.0801	-1.3678	-1.0575
-34.4448	-3.1694	1019.65	1.9184	-0.4982	-1.1493
-0.4784	20.93	987.059	2.1719	-0.5637	-1.1187
-5.2026	-11.2424	1005.12	1.4334	0.1136	-1.11
2.6312	12.9168	975.338	1.8616	-0.5419	-1.1449
-10.465	-2.392	944.541	0.7953	0.4545	-1.1406
-22.0662	4.3056	1084.35	2.858	-0.8827	-1.0969
-12.1992	1.0166	822.31	-1.1231	1.0182	-1.0706
-23.1426	14.8304	1000.21	2.0889	-0.2928	-1.1231
14.651	17.8802	816.689	-0.3234	-0.0787	-1.1231
-41.5012	38.6906	1099.24	3.3387	-0.8478	-1.1493
-10.8238	-25.9532	777.46	-0.1966	0.6642	-1.1581
-11.0032	42.5178	1093.5	4.2302	-0.8871	-1.1275
3.4086	-41.3816	831.16	1.0357	-0.0524	-1.1143
-6.9368	38.6906	1096.97	4.7065	-1.3503	-1.0401
-11.063	-42.8168	812.562	1.311	-0.6861	-0.8696
6.9966	35.88	1056.96	6.118	-2.2593	-0.7604
-0.8372	-10.8836	791.991	2.185	-1.3197	-0.7516
-40.4248	3.8272	991.424	6.3146	-2.9891	-0.6774
4.7242	24.6974	982.215	5.2353	-3.3125	-0.5943
-38.8102	3.3488	975.816	5.3533	-3.0896	-0.5943
-19.1958	25.714	1051.7	6.0393	-3.2425	-0.638
-23.5612	6.279	1036.75	5.3926	-3.2731	-0.5768
-31.7538	24.6974	1092.25	5.8121	-2.6439	-0.4938
-18.7772	9.568	1048.59	5.1216	-2.4559	-0.4763
-33.4282	28.8236	1126.39	5.764	-2.102	-0.4938
-25.1758	-8.671	1103.01	4.6759	-1.3591	-0.4151
-9.867	32.9498	1129.14	4.8551	-0.6992	-0.3627
1.9136	8.7906	1053.44	3.059	-1.1755	-0.1398
-45.747	26.0728	1060.61	3.4567	-0.5025	-0.0306
-24.4582	29.302	1016.54	2.4559	-0.3146	0.0655
-44.4314	42.0992	995.909	2.587	-0.1879	0.1704
-45.6872	54.1788	964.993	3.0066	1.0007	0.1748
-48.737	41.8002	961.943	3.9374	2.8318	0.1092
-21.229	-9.6278	1007.51	5.0823	4.3744	0.0087
-2.3322	-21.827	995.311	4.4312	4.2913	-0.1224
19.7938	-10.5248	953.391	2.9061	2.6439	0.0524
-38.9896	45.0892	1009.07	2.0932	0.2229	0.5856
-86.71	42.757	955.185	0.8958	0.756	0.8609
-93.9458	68.3514	933.119	0.756	0.6817	0.5943
-44.7304	70.9228	928.156	0.8128	-1.6781	0.4982
-77.3812	97.0554	917.212	0.9614	-2.622	0.5594
-93.886	68.8298	874.934	1.6038	-2.3423	0.402
-45.3284	51.0692	763.766	2.0539	-2.0583	0.354
-15.249	39.1092	776.443	4.7983	-2.0277	0.5594
-15.548	15.4882	983.71	7.6169	-3.9985	0.9876
-21.4682	23.5014	1103.01	6.7779	-5.2658	1.2236
-57.7668	38.2122	1110.84	5.3969	-4.6235	1.1493
-77.2018	52.1456	988.315	3.0634	-4.1034	0.9352
-85.8728	80.0722	1118.02	4.2564	-5.7072	1.1668
-71.2218	52.1456	1076.82	2.2506	-5.9825	1.2673
-117.208	113.261	1165.2	3.6621	-4.1122	1.0969
-54.119	53.4014	1078.19	1.748	-2.4909	0.8521
-56.5708	53.5808	1078.55	1.7305	-1.6344	0.839
-48.9762	54.3582	1043.93	2.0408	-0.9264	0.839
-63.089	29.9	1118.2	2.6744	0.6249	0.9395
-24.6974	12.1992	1086.92	1.8485	1.6956	1.0706
-15.1892	27.7472	1049.79	1.1886	2.8973	1.2673
-8.1328	31.096	963.856	0.1923	2.6788	1.6387
-53.6406	27.7472	919.425	-0.0044	1.8747	2.0058
-75.647	50.3516	955.066	0.7779	1.9359	2.1063
-37.674	56.81	883.605	-0.284	2.3467	2.303
-48.139	68.2318	875.95	0.4501	1.4334	2.5564
-87.6668	85.0954	850.236	0.8958	1.276	2.9104
-77.3214	55.016	860.881	1.3285	0.5637	3.142
-94.9624	108.597	852.927	3.1726	2.6133	3.3955
-47.8998	29.3618	779.732	3.1814	2.5302	3.5965
-63.089	63.2086	946.096	6.3627	1.9709	3.8806
-48.6772	40.066	889.824	4.0117	1.0357	4.217
-86.8296	91.793	983.052	5.3095	0.2141	4.6235
-115.593	87.308	928.216	3.4785	-0.1792	5.0124
-123.965	116.969	996.268	4.37	-0.3889	5.3664
-122.231	121.753	973.843	3.2819	-1.2323	5.5324
-158.231	152.012	1035.26	3.8194	-1.7917	5.6941
-156.497	143.819	938.98	2.4428	-1.713	5.7028
-161.221	148.842	960.328	3.4348	-1.5645	5.6286
-120.916	133.474	943.225	3.7538	-1.8747	5.8864
-145.852	131.799	1027.66	4.9206	-1.0182	6.1311
-113.62	105.726	1004.88	3.9505	-2.1719	6.555
-143.281	140.351	1093.92	4.8332	-1.9578	6.7604
-139.454	126.238	1034.12	3.3999	-1.8922	6.9964
-135.208	154.523	1037.05	3.5178	-1.4203	7.1843
-137.839	125.221	1023	2.8099	-1.831	7.5601
-138.557	149.081	1002.61	2.5914	-1.8092	7.8878
-149.919	155.42	1009.78	2.1457	-1.7436	8.0364
-155.779	160.324	1028.62	1.7742	-2.0233	8.3423
-167.918	163.254	1012.59	0.8827	-1.429	8.5652
-160.443	175.513	991.783	0.8784	-0.9221	8.6745
-171.686	159.128	984.607	0.1442	-1.0838	8.9541
-165.287	162.297	997.524	0.0743	-1.429	9.1901
-186.815	189.745	1022.58	0.3889	-0.5025	9.2382
-164.211	170.669	1008.83	-0.3671	-0.6293	9.378
-177.726	196.084	967.923	-0.2141	0.201	9.5091
-164.33	165.168	903.877	-0.6555	0.2272	9.6096
-170.849	177.726	913.266	0.6511	0	9.6315
-156.616	160.922	900.528	0.2578	-0.4414	9.6358
-172.344	185.081	922.774	0.6424	-0.9876	9.7538
-160.862	166.722	897.179	0.0131	-1.5033	9.8631
-183.167	197.519	950.342	0.7866	-1.9315	10.0248
-179.4	170.31	861.778	-0.5681	-2.2942	10.1122
-190.583	205.114	928.993	1.311	-2.941	10.1646
-185.141	196.443	968.82	1.1843	-3.1508	10.1821
-185.559	187.951	969.597	1.63	-2.5827	10.2302
-172.702	175.035	940.654	1.4989	-2.2986	10.3001
-161.46	168.636	982.155	2.4909	-2.5346	10.3831
-164.211	172.523	994.115	2.5696	-2.3991	10.5885
-163.673	171.566	1000.45	2.5215	-2.5346	10.8813
-161.041	165.347	1006.67	2.2374	-2.5739	11.1216
-175.393	183.227	1008.59	2.268	-2.7138	11.3096
-181.433	186.217	969.597	1.5994	-2.8623	11.5062
-199.493	198.416	1019.71	2.7356	-3.3999	11.6723
-211.453	193.692	1005.24	2.2942	-2.9366	11.8689
-177.965	204.516	1038.49	2.858	-2.7312	11.9825
-183.765	201.586	1008.17	2.1763	-2.5958	12.1967
-174.317	191.898	997.285	2.3248	-2.6701	12.4501
-209.18	204.337	1028.44	2.4603	-2.1063	12.5987
-175.932	210.376	989.57	1.8922	-2.1151	12.8522
-195.187	207.566	996.148	2.15	-1.3328	13.1537
-205.772	213.964	1006.14	2.4297	-0.201	13.4028
-174.855	182.091	1005.72	1.6431	0.4938	13.5208
-201.765	202.543	1076.7	1.346	0.3146	13.7087
-215.818	205.891	1005.54	-1.1231	0.0087	13.9884
-217.074	244.403	1027.78	-1.2367	-0.4064	14.1544
-239.021	250.084	999.976	-2.4865	-0.5856	14.3642
-251.459	261.147	960.508	-2.3248	-0.2622	14.5084
-241.413	261.565	917.272	-2.3991	0.1049	14.5084
-225.386	248.349	927.618	-1.5426	-0.472	14.5521
-227.419	239.2	913.624	-1.2498	-0.7167	14.5914
-199.971	228.137	855.319	-1.1406	-0.1136	14.5827
-208.523	243.326	840.549	0.0087	-0.6905	14.8405
-191.061	212.529	780.51	0.2447	-0.992	14.9716
-197.22	238.542	926.78	2.5433	-2.4909	15.1289
-185.141	208.881	847.844	0.3103	-3.8281	15.2513
-226.582	264.794	963.378	2.1282	-4.0379	15.2819
-222.277	261.864	944.182	0.8085	-4.3001	15.2906
-204.755	276.874	957.996	1.6519	-4.5448	15.3387
-232.443	260.907	978.448	2.4428	-3.8281	15.2994
-197.46	257.618	986.7	2.7356	-3.4436	15.0983
-190.523	249.725	1006.73	2.9672	-2.7138	14.9541
-190.343	248.708	1007.81	3.295	-2.4822	14.9498
-178.383	242.31	1013.31	3.3081	-2.504	14.9498
-188.848	232.801	1077.18	3.6489	-2.7356	15.0197
-193.094	233.399	1058.04	2.74	-2.1937	15.1552
-185.32	251.459	1018.93	2.3205	-1.4334	15.1289
-171.746	248.947	996.388	2.0146	-1.4858	15.177
-177.187	257.798	1024.49	2.469	-1.8966	15.3605
-173.36	262.343	984.487	1.512	-1.3765	15.3125
-155.54	255.047	975.816	1.7393	-1.1143	15.3343
-192.855	256.004	978.388	1.748	-0.9964	15.579
-156.377	250.741	913.505	1.713	-0.9046	15.579
-210.137	278.668	1047.82	3.9636	-0.7997	15.6446
-184.005	224.669	997.643	2.4647	-0.1005	15.732
-183.108	268.502	1038.97	3.697	1.311	15.6796
-151.952	239.26	961.584	2.1631	1.5295	15.5353
-180.357	262.402	993.517	2.3817	0.1879	15.579
-160.503	262.044	919.784	0.7953	-1.1537	15.7145
-214.981	316.641	959.85	2.1326	-0.7516	15.6927
-187.114	255.406	918.648	0.7167	-1.0925	15.7014
-202.244	296.608	923.731	1.665	-1.4159	15.5965
-214.562	274.303	915.06	1.512	-2.2811	15.4392
-212.23	283.631	1017.2	2.6176	-3.2731	15.4523
-200.27	292.542	980.899	1.9315	-1.8572	15.3125
-161.52	270.057	918.827	2.0714	-1.4596	15.2207
-158.829	272.269	935.272	3.2819	-2.1894	15.3343
-175.334	261.206	965.71	3.8063	-2.5433	15.4873
-159.068	230.35	999.856	3.3693	-2.7007	15.5703
-179.28	266.409	1059.36	3.2994	-2.7837	15.6096
-176.29	263.12	1009.24	2.0757	-2.4297	15.6796
-187.054	270.416	1012.53	2.587	-2.1981	15.8281
-167.5	259.173	1022.88	2.0801	-2.5302	15.9155
-186.815	294.814	1090.45	2.539	-1.8966	15.8544
-161.221	280.881	988.673	0.8347	-1.0663	15.767
-201.705	303.904	977.551	1.3722	-0.3933	15.697
-180.775	261.027	1001.59	1.4639	-1.1843	15.6839
-192.257	277.592	1056.49	1.7524	-0.4676	15.6839
-159.786	267.665	1011.64	0.7167	-0.2229	15.5572
-179.101	294.276	991.723	-0.0655	-0.2491	15.6227
-152.071	257.738	930.189	-1.3066	-1.027	15.6708
-200.928	305.937	977.012	-0.7691	-1.0095	15.5878
-180.716	294.216	932.581	-2.0626	-1.2979	15.4873
-191.001	294.934	951.657	-1.1449	-0.957	15.5004
-170.49	288.116	944.302	-1.1974	-0.3671	15.4611
-166.124	264.436	890.781	-1.346	0.2709	15.295
-148.065	269.758	879	-0.5375	0.2884	15.3212
-149.739	249.246	880.435	0.0961	0.2753	15.4698
-139.274	260.608	946.634	1.2804	0.4195	15.5004
-124.264	239.14	985.145	0.638	-0.153	15.6315
-150.038	268.263	924.329	0.1792	-0.2884	15.8281
-132.278	251.339	935.332	0.354	-1.2367	15.7888
-140.47	291.884	950.88	0.3671	-2.2156	15.7014
-188.43	251.878	833.253	-2.5521	-3.0634	15.9418
-214.622	337.631	905.671	0.0175	-3.3562	15.7364
-170.49	299.957	880.615	-0.201	-3.6577	15.7495
-176.171	298.821	942.986	1.7961	-2.8536	15.697
-149.919	271.193	974.74	1.949	-2.1107	15.5353
-110.809	270.057	969.418	2.0932	-2.0364	15.3868
-148.663	243.147	1003.68	2.2506	-2.2637	15.5091
-153.566	233.1	993.158	1.8704	-2.1369	15.649
-151.354	272.987	1069.4	2.4035	-2.1063	15.6402
-160.264	254.688	1104.57	1.547	-1.9709	15.7713
-153.626	265.452	1059.78	0.9177	-1.2892	15.7626
-126.656	283.631	863.153	-0.9264	-0.8303	15.5179
-179.699	279.625	1001.17	1.0619	-2.6526	15.3737
-143.042	294.037	943.225	-0.472	-3.0459	15.2819
-174.377	320.468	924.329	0.0787	-1.7786	15.3168
-152.012	236.449	947.531	0.9964	-1.6169	15.4785
-145.254	270.176	1011.04	2.3161	-0.6074	15.378
-115.474	234.356	954.827	1.394	-0.0306	15.1333
-147.228	253.253	967.444	2.0889	0.402	15.0983
-128.869	247.153	964.933	2.0058	0.7298	15.2557
-102.916	257.2	969.896	2.4253	1.5339	15.2032
-129.407	230.708	1001.95	2.3161	1.2323	15.3081
-104.59	253.672	991.484	1.8529	0.3671	15.4174
-128.271	259.711	996.388	1.2367	0.1661	15.4785
-173.659	253.612	994.354	0.9046	-0.1835	15.5048
-134.49	295.831	875.293	-0.3015	-0.472	15.3649
-199.911	295.651	875.293	0.8521	-0.6249	15.2644
-170.669	268.801	927.797	2.0015	-1.9971	15.33
-157.274	301.213	898.854	2.2243	-1.1581	15.2207
-137.241	276.575	858.25	3.4785	-0.7298	15.0459
-133.593	269.339	912.07	5.1784	-0.9352	15.0197
-116.012	242.908	986.58	5.5892	-1.7218	14.941
-105.368	212.948	977.192	4.335	-2.5521	15.0241
-147.467	274.602	1057.08	5.1872	-3.461	15.2557
-145.374	262.881	986.7	3.5484	-3.1857	15.1814
-164.749	280.761	1058.28	4.7327	-3.5441	15.0241
-146.988	282.136	992.202	3.1551	-4.2302	14.9017
-191.001	287.638	960.986	3.8849	-3.5397	14.6089
-176.769	295.711	1069.52	5.2571	-3.378	14.303
-125.759	261.147	1052.72	4.0379	-3.3693	14.0801
-149.081	274.004	1110.01	5.0998	-2.2724	13.9053
-96.4574	227.718	1060.49	3.6446	-2.1763	13.8136
-112.364	248.708	1086.57	3.4785	-2.539	13.9272
-123.965	222.994	1022.28	1.7961	-2.4822	13.9709
-145.792	265.333	1085.25	2.7793	-2.2811	13.8529
-131.56	234.057	1040.28	1.027	-2.4472	13.7873
-137.42	249.127	1074.13	1.5645	-2.4909	13.783
-120.497	249.964	1019.65	0.4938	-1.8092	13.6912
-125.999	261.266	980.062	0.118	-1.6256	13.5907
-121.155	245.419	946.036	0.0655	-1.7961	13.5514
-131.082	247.333	977.431	1.1537	-1.6431	13.4902
-111.348	245.658	969.537	0.9745	-1.9883	13.3154
-114.696	263.838	1008.47	1.346	-1.9053	13.2192
-130.185	250.203	941.671	0.7691	-1.0138	13.1056
-133.354	237.705	947.83	1.6693	-0.8609	12.7735
-111.228	214.861	966.846	2.0364	-1.1056	12.5375
-129.587	217.493	982.394	2.1326	-0.9177	12.3584
-92.6302	225.566	959.969	2.0845	-0.7604	12.0612
-86.9492	232.682	974.86	2.3117	-0.7036	11.8034
-86.2316	224.609	927.438	1.311	-1.6519	11.646
-105.607	225.685	932.88	1.3634	-2.0583	11.3664
-113.321	239.2	1024.13	2.1195	-2.9716	11.1129
-86.5306	219.466	984.667	0.2535	-3.6402	11.1522
-118.344	248.469	951.657	1.1362	-2.5958	10.9381
-95.2614	222.277	938.202	1.512	-2.539	10.7196
-80.431	200.629	970.076	2.6089	-2.3336	10.5535
-83.9592	179.161	959.491	3.0109	-1.2411	10.453
-46.2852	176.829	994.474	3.8194	-0.9046	10.335
-39.0494	163.912	1034.06	3.7451	-0.5856	10.3176
-40.4248	172.344	1033.05	3.2382	-0.2054	10.3569
-42.6972	194.649	991.903	2.1806	-0.3889	10.3788
-80.431	200.031	1008.17	2.2811	-0.5812	10.2826
-85.4542	217.493	1010.92	2.0583	-0.4938	9.9898
-77.6204	225.805	954.169	1.5863	-0.1049	9.5703
-88.4442	213.785	993.517	2.4647	-0.3802	9.2819
-65.1222	189.088	961.704	1.9709	-0.2403	9.0546
-61.4146	195.426	938.92	2.6351	0.2316	8.8973
-49.5144	164.33	948.607	2.9192	0.201	8.7618
-32.89	168.337	935.81	3.1508	0.3059	8.7138
-29.0628	164.689	914.94	3.3081	0.6031	8.6176
-28.106	164.689	934.554	3.6184	0.0655	8.5783
-29.5412	162.895	950.521	3.531	-0.2141	8.4691
-41.9198	176.29	978.687	3.8631	0.3583	8.3904
-18.4782	162.596	1003.62	3.3605	-0.1486	8.3642
-45.3882	173.181	1013.37	3.0546	0.3715	8.2986
-42.5776	173.181	992.919	2.7356	-0.1224	8.1151
-55.8532	182.091	1003.15	2.5696	-0.3234	7.8573
-56.3914	181.792	989.989	2.3423	-0.1966	7.6999
-56.81	196.084	965.89	2.1413	-0.0612	7.4377
-40.3052	167.619	928.335	2.0364	-0.0655	7.1187
-70.2052	173.241	985.444	3.2163	-0.2884	6.8128
-42.2188	149.022	945.199	2.5564	-0.3103	6.5069
-36.2986	161.639	979.464	3.4392	-0.2229	6.2491
-14.4118	143.699	955.783	2.7837	-0.3452	6.0568
-25.5944	155.958	956.202	3.177	-0.7953	5.8689
-34.5046	144.836	977.192	3.3037	-1.429	5.6242
-21.1692	149.141	1012.35	3.4392	-1.7917	5.3314
-22.2456	151.174	984.069	2.6395	-1.9141	5.0911
-7.2956	151.832	957.398	2.5564	-2.4341	4.8289
-26.7306	139.573	983.411	3.0022	-2.5521	4.5841
-14.053	128.989	990.527	3.0503	-2.5739	4.2913
-7.774	121.155	996.627	2.7312	-2.7225	4.1253
-8.8504	111.288	1007.69	2.6089	-2.3642	3.9505
-1.196	127.135	1004.82	2.3248	-1.9709	3.7669
-1.6744	111.049	1001.95	1.7786	-2.0626	3.5266
-4.9036	106.324	1057.5	1.9621	-1.7786	3.1377
11.661	95.68	1054.21	0.8784	-1.3023	2.823
12.3786	99.0288	1055.95	0.0612	-0.9352	2.5171
16.6244	89.999	1016.9	-1.0138	-0.9745	2.1238
8.671	95.2016	1020.31	-1.027	-0.7997	1.7261
17.4616	92.391	992.441	-1.7742	-1.0226	1.4028
24.3984	90.4774	969.777	-1.9359	-1.0794	1.1843
28.3452	87.607	896.522	-1.7655	-0.3846	0.7953
38.4514	81.7466	910.933	-0.5463	-0.8259	0.4283
49.036	58.604	876.13	-0.2972	-0.8871	0.1311
49.036	62.4312	906.448	1.0357	-0.319	-0.0699
49.4546	39.2886	868.774	1.2586	-0.2185	-0.2447
85.4542	39.2886	864.529	1.9097	-0.3583	-0.3409
74.152	32.1126	880.136	2.5433	-0.5856	-0.3758
77.2018	23.322	932.103	3.142	-0.4457	-0.4108
74.8098	38.272	953.391	2.9192	-0.284	-0.4457
80.5506	10.1062	975.099	3.1814	0.1617	-0.5637
73.853	34.2056	975.099	3.1857	0.6948	-0.7735
65.78	21.6476	996.268	3.3518	0.9832	-0.9614
81.5672	23.2024	1037.41	2.5259	1.1449	-0.9221
86.6502	18.1792	999.736	2.5171	1.7043	-0.9964
94.0056	26.8502	973.544	2.7881	1.2542	-1.0357
86.2316	22.126	978.687	2.22	0.6424	-1.1668
94.185	27.5678	955.604	2.3511	-0.1311	-1.2673
70.1454	67.1554	945.498	2.3904	0.0918	-1.429
66.1986	47.7204	901.904	3.8762	0.9133	-1.7524
68.6504	47.3616	942.568	3.2119	-0.3321	-1.9578
109.494	17.4616	873.08	4.6715	-0.4982	-2.0626
88.6834	13.9334	918.468	4.8245	-1.1537	-2.1238
103.155	22.2456	952.255	4.2826	-1.4727	-2.1806
106.683	38.9896	955.126	4.689	-2.4472	-2.3598
71.9394	54.3582	1018.99	4.335	-2.3161	-2.6395
47.1224	51.2486	1012.11	4.5798	-2.6045	-2.976
49.1556	32.1724	1121.79	2.7225	-3.5397	-3.2731
87.7266	36.8368	1077.78	1.9709	-2.9279	-3.4741
57.8864	86.1718	992.261	1.9709	-1.8135	-3.8106
73.0756	22.0662	971.511	2.657	-2.8012	-4.0379
113.022	18.3586	1097.87	3.4436	-2.3336	-4.2913
110.211	-18.4184	1020.55	1.4203	-2.3336	-4.4224
107.221	14.2922	1041.54	1.8529	-2.6395	-4.3831
118.105	17.94	1023.6	0.9002	-2.2855	-4.4399
125.879	2.8106	1046.02	1.2192	-1.8747	-4.4399
126.058	-27.0296	961.943	0.5681	-0.8784	-4.654
101.481	-14.8902	1067.67	1.5601	-1.0138	-4.7109
136.763	-33.5478	1009.54	-0.0699	-1.5164	-4.7808
128.092	17.7008	977.67	0.5331	0.1049	-5.1042
143.699	-17.043	901.007	0.4108	1.0095	-5.2964
162.237	-40.365	927.079	0.9876	-0.756	-5.1042
140.111	-46.1656	972.169	1.2367	-1.0095	-5.161
143.52	-17.1626	939.279	1.1668	-1.0575	-5.3183
143.998	12.259	867.399	0.9177	-1.0357	-5.4057
134.311	-22.126	922.355	2.8755	-1.1012	-5.4669
141.846	-38.87	910.096	2.9017	-1.0051	-5.5674
153.148	-39.5278	932.402	3.9461	-1.8398	-5.7684
169.413	-41.0228	923.013	3.732	-1.9184	-5.8951
176.29	-20.4516	966.727	4.3263	-2.3074	-5.799
166.663	-31.6342	965.351	3.6271	-2.7793	-5.7378
136.045	-27.508	1023.78	4.2651	-3.413	-5.764
137.899	-27.9864	1036.99	3.5135	-3.6096	-5.8252
134.43	-5.98	1087.46	3.7582	-3.1726	-6
159.068	-31.096	1041.96	2.6613	-2.7968	-6.0699
148.902	-20.5712	1025.63	2.7968	-2.7138	-6.118
145.733	-31.6342	1072.87	3.024	-3.7495	-6.1923
144.058	-23.92	1079.39	2.4079	-3.5178	-6.3234
159.965	-6.877	1057.68	1.9534	-3.4567	-6.3802
145.434	-9.9268	993.218	1.1493	-3.0765	-6.4195
146.032	-21.3486	1035.2	2.2243	-3.5397	-6.5987
142.563	-27.7472	1020.25	1.4989	-3.3605	-6.756
152.251	-24.8768	1017.44	1.3154	-3.4173	-6.909
156.377	-32.4714	993.517	1.0838	-2.3817	-7.0575
167.56	-36.8966	1007.87	1.11	-2.6613	-7.2498
163.613	-47.3616	1038.55	1.0925	-2.7181	-7.4727
161.281	-53.521	1070.3	1.0619	-2.1326	-7.6475
172.822	-49.9928	1052.3	0.0306	-1.6519	-7.8267
195.965	-53.3416	957.458	-0.7779	-1.3066	-7.9534
171.327	-56.212	977.491	0.153	-0.9221	-8.019
182.51	-56.8698	957.637	0.1092	-0.8565	-8.1544
198.237	-92.5704	945.498	0.4807	-0.7604	-8.3117
192.197	-65.182	923.372	0.6468	-0.3671	-8.4297
208.762	-70.7434	873.02	0.7473	-0.7516	-8.504
199.433	-75.348	940.714	2.1282	-0.9002	-8.5608
205.533	-88.9824	921.697	2.0102	-1.075	-8.6133
199.194	-87.0688	948.787	2.4472	-1.3765	-8.6526
204.038	-94.7232	972.527	2.4297	-2.3205	-8.6788
214.383	-60.8764	936.528	2.2243	-2.587	-8.7618
196.204	-68.7102	931.744	2.4559	-3.1377	-8.7706
185.5	-68.5308	970.434	3.2688	-2.8099	-8.8274
195.187	-75.647	965.949	3.4436	-2.5652	-8.9367
194.948	-84.9758	1017.44	4.2476	-2.2986	-9.1289
205.951	-83.8994	1028.86	4.0947	-1.748	-9.1595
216.416	-91.9126	1026.59	3.7932	-1.1755	-9.1202
214.503	-97.8926	1047.46	3.6664	-0.9221	-9.142
207.865	-96.0388	1047.46	2.976	-0.957	-9.1158
188.31	-86.6502	1099.96	2.6351	-0.8609	-9.2382
201.227	-92.391	1103.19	1.5863	-0.6642	-9.3168
199.074	-79.8928	975.278	0.1617	-0.3146	-9.4567
184.124	-59.202	984.727	1.3634	-0.6905	-9.614
209.838	-92.4508	945.079	1.075	-0.957	-9.7189
188.789	-56.1522	930.428	2.1937	-0.4064	-9.8849
220.722	-107.281	881.871	2.3685	-0.52	-9.9942
207.327	-83.8994	951.478	4.5404	-0.7079	-10.1384
217.672	-117.926	925.943	4.1821	-1.0969	-10.169
237.346	-106.205	963.378	5.1347	-1.2149	-10.2039
224.728	-114.995	958.773	4.6278	-1.6038	-10.2564
215.878	-109.135	993.816	4.9643	-2.5783	-10.2957
224.489	-120.258	1044.41	4.8026	-3.2076	-10.3307
204.217	-88.6834	1067.91	4.571	-3.4217	-10.2957
218.031	-94.1252	1035.98	3.9286	-3.2469	-10.3569
219.885	-107.042	1032.87	3.9942	-3.1857	-10.4006
210.317	-91.1352	1053.14	4.2214	-3.413	-10.4618
214.263	-101.66	1065.58	3.7189	-3.3955	-10.4356
209.778	-102.138	1053.32	3.6489	-2.9279	-10.4443
219.586	-78.3978	1028.62	3.2469	-2.7094	-10.4705
194.948	-90.298	1021.68	3.5615	-1.9184	-10.5011
206.489	-96.6966	1054.51	4.4443	-0.8653	-10.5186
210.795	-106.265	1076.46	4.5361	0.4676	-10.6366
217.493	-127.135	1057.02	4.1559	1.2105	-10.7196
235.492	-113.799	1001.41	3.7101	2.4385	-10.6453
238.781	-133.832	1038.37	4.0859	3.3299	-10.5361
228.137	-144.058	1027.84	3.6577	3.1551	-10.488
216.356	-113.5	998.421	2.5346	2.7793	-10.5535
128.331	-79.235	967.923	1.5776	3.0896	-10.6278
232.443	-57.109	885.758	1.7349	4.7109	-10.7196
226.941	-135.746	894.488	3.6184	7.0444	-10.8944
206.19	-147.407	924.867	4.5972	6.1093	-10.8682
240.456	-98.2514	838.934	3.1857	5.1959	-10.8726
246.735	-126.298	791.752	4.2214	6.0874	-11.0211
229.572	-109.195	849.04	6.1267	6.1311	-10.8682
239.559	-143.52	901.904	6.7254	4.2607	-10.7371
201.347	-129.228	960.567	6.6817	3.3518	-10.7721
240.815	-125.52	888.09	5.48	1.2935	-10.7196
208.881	-58.1256	760.596	4.6366	0.5069	-10.5667
222.994	-67.6338	760.656	6.4064	-1.2017	-10.5754
177.307	-74.3912	957.757	8.4691	-4.5929	-10.2171
156.198	-57.0492	1030.95	7.5907	-4.6191	-10.37
172.583	-48.1988	931.804	7.5863	-2.3773	-10.9468
181.254	-29.4216	1097.27	9.2469	-4.9337	-10.8289
203.44	-91.3146	1056.49	6.4283	-6.0961	-10.6978
114.756	-26.4914	1376.84	9.579	-4.8332	-10.8638
196.323	-70.3248	1183.62	3.094	-5.6548	-11.0168
134.67	-40.963	1306.69	4.1471	-4.2739	-11.2265
153.865	-84.2582	1344.24	1.9272	-4.606	-11.4669
185.38	-69.7268	1219.14	-1.5076	-4.5535	-11.5936
224.968	-80.4908	1142.3	-2.9585	-6.1486	-11.4494
186.935	-31.694	992.8	-5.2921	-7.1624	-10.9032
164.33	-66.8564	1082.14	-3.7014	-5.7466	-10.9556
191.24	-53.7602	1056.37	-4.3438	-5.4669	-11.0386
191.958	-66.8564	942.986	-5.2921	-4.5055	-11.0736
191.181	-91.2548	956.082	-3.6358	-4.5798	-10.9075
239.379	-95.68	824.044	-4.8463	-3.3911	-10.8376
250.084	-96.0986	862.555	-3.3037	-3.0546	-10.6147
241.712	-112.723	1015.16	-2.5958	-4.5754	-10.2695
135.866	-107.58	1171.54	-4.0117	-4.925	-10.0947
91.9126	1.8538	974.62	-6.6643	-3.3256	-10.086
315.445	-95.3212	774.051	-6.7997	2.1151	-10.6191
214.921	-159.965	944.78	-3.8106	0.4588	-9.8718
203.021	-134.43	819.2	-6.2972	-1.5819	-9.7495
244.462	-28.3452	827.034	-5.362	-0.8521	-10.2214
259.891	-124.025	779.074	-4.9905	-0.6293	-10.1384
199.732	-89.1618	855.738	-3.6839	-0.5768	-9.8849
215.101	-102.856	818.423	-3.4086	-1.7567	-10.0204
157.214	-80.6702	874.276	-2.4253	-1.984	-10.2214
178.623	-120.258	808.197	-1.7611	-2.3161	-10.5535
155.121	79.235	409.51	-2.9323	0.7691	-11.1391
275.08	-142.204	730.158	1.5994	-3.6052	-11.5368
179.34	-127.314	959.252	4.3875	-5.8471	-11.4712
205.413	-110.451	996.089	2.6788	-3.4873	-11.2396
311.438	-204.875	827.154	3.4436	1.2192	-11.3183
316.462	-216.476	1164.78	7.7305	-1.0313	-10.8726
328.123	-250.263	1119.7	2.4516	-2.705	-10.1952
268.741	-126.776	1119.46	1.6431	-3.531	-9.6664
245.658	-150.756	1030.17	0.5506	-3.0765	-9.3037
239.977	-104.949	1149.6	2.0233	-3.7626	-9.0328
231.904	-103.215	900.767	-1.6431	-4.6672	-8.8099
158.291	-78.2184	1016.96	1.346	-5.5543	-8.8056
164.988	-67.6338	970.375	2.0932	-4.0248	-9.0896
251.339	-58.903	965.471	3.8369	-2.1063	-9.2338
183.108	-132.816	1070.42	4.2564	-3.5747	-8.9192
211.752	-125.161	1219.56	3.78	-4.4749	-9.0503
171.028	-49.3948	1253.35	3.2775	-1.6912	-9.3868
223.473	-88.1452	1091.05	-0.3627	-1.1668	-9.413
213.247	-81.5672	1144.87	1.9752	-2.0932	-8.8492
196.084	-106.504	1044.89	0.52	-0.6905	-9.0372
227.12	-78.7566	1048.41	1.8354	0.472	-9.3649
215.041	-124.205	919.724	-0.3409	-0.5331	-9.3212
217.672	-66.7966	982.275	1.5601	-0.6336	-9.1683
199.911	-87.0688	804.549	-0.0437	-1.0138	-8.9235
201.107	-75.4676	884.621	1.8616	-1.5907	-8.7181
195.606	-65.7202	865.067	1.5339	-1.6213	-8.5739
207.865	-77.74	918.887	2.2986	-2.3161	-8.421
191.719	-60.697	943.046	3.4654	-1.6169	-8.2462
210.317	-93.4674	951.538	3.7058	-1.4377	-8.1413
221.499	-71.461	994.773	5.2964	-0.2797	-7.8485
237.346	-104.829	929.591	4.3656	-0.1966	-7.464
204.576	-89.2216	975.218	5.7684	0.035	-7.11
205.832	-81.0888	942.687	6	0.0481	-6.6817
202.842	-88.9824	996.687	6.9745	0.2928	-6.3715
200.928	-64.1056	1012.83	6.4021	0.437	-6.1442
208.702	-81.5074	1017.92	4.9075	-0.1923	-5.8471
157.693	-33.8468	1040.82	4.5404	-0.3146	-5.5106
151.952	-36.3584	1017.08	3.0983	-0.721	-5.2833
146.51	8.7308	1067.43	3.5659	-0.0961	-5.1872
155.6	-2.7508	962.302	1.6999	0.0918	-5.0255
130.005	-5.7408	1050.93	3.1114	0.1355	-4.9993
135.447	-4.0664	1078.01	3.1508	1.2236	-4.9993
135.567	-18.6576	1033.05	2.1763	1.8529	-4.9119
130.543	-38.6308	881.392	0.7298	1.8704	-4.7065
131.381	4.9634	952.614	2.5433	0.8609	-4.7458
119.48	7.3554	941.431	1.027	0.7779	-4.7371
123.009	30.4382	921.638	0.9876	-0.1311	-4.7152
121.035	11.96	896.761	0.0961	-1.0226	-4.7502
103.215	25.714	954.767	0.8303	-1.7567	-4.9031
115.354	28.2256	913.684	0.0874	-1.984	-5.0211
113.68	22.6044	969.238	0.9832	-2.032	-5.043
125.819	2.7508	897.598	0.5244	-2.2986	-5.0168
111.946	-1.9734	973.365	1.8135	-2.7094	-5.0736
124.264	-10.764	954.827	1.5426	-2.7444	-5.0299
134.61	-3.588	941.312	1.6912	-2.8536	-4.9731
171.506	-13.0364	1024.73	2.6613	-3.0066	-4.9643
153.447	-42.6374	1041.18	0.5288	-3.6096	-4.7633
129.108	-11.7806	1020.19	-1.1275	-4.2695	-4.4006
120.916	29.7804	930.428	-1.5776	-3.8674	-4.1253
111.108	18.837	997.643	1.0138	-3.2338	-3.9942
147.168	-17.9998	1030.23	1.2323	-2.4559	-3.8806
139.693	1.5548	1045.42	1.5514	-1.0794	-3.6926
159.965	-35.0428	1017.26	1.5164	-0.5331	-3.4741
144.297	-39.5278	1062.71	2.0932	-0.0131	-3.1158
147.945	-11.4218	950.999	0.555	0.1748	-2.4516
131.261	19.734	867.818	0.4108	-0.437	-1.9141
107.819	35.9996	873.678	1.0401	-0.909	-1.6562
105.427	59.3216	1034.54	2.8973	-1.2629	-1.3241
95.2016	30.7372	984.428	1.4683	-0.8041	-0.8696
82.4642	33.488	898.674	1.1581	-0.5069	-0.5637
72.4178	47.6606	935.511	2.9891	-0.7647	-0.2272
104.052	43.2354	971.331	3.2119	-0.9527	0.1661
89.8794	58.1854	960.328	2.0932	-1.429	0.5113
47.84	78.4576	933.418	1.547	-2.2724	0.9832
30.0794	123.965	897.538	2.7662	-2.2549	1.4421
6.5182	109.255	1009.84	4.89	-2.2331	1.512
66.079	98.969	1022.58	5.1566	-1.6082	1.4159
47.3616	95.1418	966.428	3.8543	-1.7393	1.5557
41.7404	84.8562	1015.4	4.7502	-2.7225	1.6737
31.1558	96.3976	1117.24	4.7589	-2.4953	1.8747
37.1956	111.527	1017.62	2.2855	-2.8186	2.3205
21.1692	108.298	922.116	1.3591	-3.2688	2.6176
-10.9434	149.56	1149.83	4.6322	-3.5135	2.5958
5.4418	140.351	1138.35	2.9148	-1.9534	2.6176
13.5148	116.909	1071.8	2.6875	-1.0881	2.8143
31.8734	86.411	1021.2	2.8755	-0.3977	2.8492
36.6574	92.2116	1095.83	4.2258	-0.2491	2.9061
52.8034	90.7166	1022.28	1.3765	-0.3103	3.1683
10.4052	141.606	902.382	0.1966	-1.4683	3.6664
4.6046	142.743	944.78	1.8922	-1.7567	3.6795
-33.787	144.836	1027.54	1.7742	-1.9927	3.6708
-17.8204	162.178	925.883	0.4851	-1.4771	3.6446
3.4086	140.351	927.558	2.9716	-0.992	3.3299
10.4052	106.922	1092.01	4.5841	-0.7691	2.9585
48.1988	90.8362	999.677	0.9964	-0.673	3.142
-15.847	143.4	920.621	0.4938	-1.3416	3.4654
-26.8502	136.464	847.246	0.5506	-2.2899	3.5091
-23.621	166.782	1058.58	4.6584	-1.7786	3.024
12.9766	161.4	990.527	2.22	-0.7735	2.7487
16.3254	76.3646	872.123	-0.1486	-1.713	2.4996
4.485	157.752	1154.5	4.8114	-1.3197	2.22
16.6842	73.9726	995.79	-0.4151	-1.2717	2.4778
0.8372	96.4574	859.685	0.402	-1.3066	2.5128
14.7706	154.105	945.916	2.5433	-1.4071	2.1588
22.6642	69.7268	991.663	0.7997	-2.4297	1.9403
16.0264	138.856	1088.18	2.3292	-1.5033	1.7218
26.8502	95.5006	973.544	0.035	-1.2061	1.8004
15.4882	72.4776	869.073	0.8303	-1.5426	1.6344
14.1726	119.959	968.401	3.1289	-1.3023	1.2454
42.159	78.8762	909.02	1.5295	-2.102	1.0706
42.6972	95.7996	1020.31	4.217	-1.8835	0.7997
64.9428	53.8798	1037.35	3.2819	-1.6256	0.5987
28.3452	61.7136	938.8	1.0619	-2.5477	0.7735
46.5244	80.6702	980.6	2.6744	-2.7225	0.5244
31.8136	93.2282	1047.46	2.6001	-2.4953	0.2666
58.3648	40.2454	960.508	0.4108	-3.1639	0.2054
34.8036	111.946	1035.98	3.1857	-1.6868	0.1748
79.6536	37.9132	996.926	3.1158	-1.6956	0.1442
63.986	18.7772	1115.81	4.4924	-0.0787	-0.0437
100.942	39.2288	1008.05	1.8267	-0.0743	0.1355
51.0094	52.5642	914.761	0.8216	-0.7298	0.284
42.757	83.6602	1043.75	3.8325	-0.909	0.0612
56.6306	66.378	968.102	1.8529	-0.3496	0.0918
49.5144	53.1024	867.818	0.9439	-1.2979	0.2316
24.0994	74.9294	1045.66	4.1821	-0.52	-0.0437
60.9362	59.9196	1069.64	3.8281	-0.1311	-0.2316
60.2784	44.9098	925.285	1.4858	0.0655	-0.1224
54.8366	61.3548	906.03	2.4734	-0.9483	-0.2972
50.1124	60.0392	959.013	3.5878	-1.027	-0.4457
55.315	67.1554	993.577	3.024	-1.9228	-0.2928
56.0326	65.8996	976.355	2.4472	-2.0452	-0.2403
47.1822	71.9394	958.056	3.1333	-2.1107	-0.319
41.3218	54.3582	1010.38	3.7451	-2.0277	-0.3758
60.099	57.5276	1003.74	3.4873	-1.7349	-0.3933
66.7966	37.674	975.458	3.094	-1.8092	-0.3933
60.5774	53.0426	1028.2	3.7713	-1.9621	-0.4326
58.7236	50.83	1034.66	2.7269	-2.032	-0.3234
45.5676	55.4944	1011.46	2.386	-1.8704	-0.2535
46.345	65.0026	1071.08	3.3125	-1.3066	-0.3321
53.222	39.9464	1050.75	2.4341	-0.6905	-0.4763
49.335	64.9428	1013.13	2.2374	0.0655	-0.5025
44.0128	26.91	963.318	1.5208	-0.1704	-0.6293
42.6374	52.5642	1022.82	2.5171	0.0787	-0.7691
69.9062	29.4216	957.278	0.4457	-0.0481	-0.8303
61.0558	29.601	995.73	0.1748	-0.4982	-0.7953
68.5308	14.4716	1006.79	-1.949	-0.8609	-0.7691
15.6676	59.1422	994.713	-3.3256	-1.2323	-0.5681
-7.2358	64.285	867.04	-4.6846	-1.4159	-0.5768
-15.4284	62.4312	856.396	-1.429	-0.8347	-0.7822
23.1426	65.7202	889.585	1.0488	0.9002	-1.1406
67.9926	30.3186	855.499	2.9978	2.1675	-1.3853
82.8828	-22.7838	851.313	5.4625	3.295	-1.5732
60.398	17.7606	859.745	7.4508	4.0379	-1.547
52.3848	-20.8104	734.404	8.386	5.3445	-1.6475
76.7832	-37.1956	817.765	11.8471	5.8121	-1.9578
152.131	-88.5638	939.697	12.1617	3.5528	-2.1457
98.7896	-4.4252	1176.56	12.2185	1.4945	-2.0277
105.308	-46.4048	1130.1	8.4559	0.5594	-1.6169
62.8498	-3.6478	1155.04	8.3074	0.5244	-1.4639
78.936	-25.714	1072.87	7.2498	-0.4239	-1.3023
21.528	-37.076	1041.84	7.228	-0.9308	-1.1318
111.407	31.0362	922.893	6.3933	-2.8012	-1.1318
68.0524	86.4708	959.252	6.7691	-5.1697	-0.5288
-24.4582	59.501	1180.63	8.9279	-6.3059	0
-38.9298	83.421	1202.94	7.4203	-4.1384	-0.4326
7.2956	80.132	1117.06	5.6504	-4.016	-0.9395
-46.8234	107.999	1207.42	6.3365	-4.9031	-1.0182
-13.6942	90.1784	1194.51	4.3263	-4.1821	-1.228
-22.9632	88.803	1171.6	3.0721	-2.6439	-1.5164
-34.385	48.5576	1337.43	1.6213	-4.606	-1.595
-19.0762	102.198	1119.81	-2.2637	-4.6103	-2.0058
-11.2424	104.53	1108.39	-2.6875	-1.5295	-2.6788
29.3618	57.1688	1005.06	-3.5004	-3.2819	-2.3991
29.1226	40.1856	936.827	-4.5404	-2.8405	-2.3773
14.4716	47.3616	974.262	-2.3248	-1.6999	-2.6788
65.481	-5.6212	861.838	-3.5878	-1.6125	-2.6919
82.9426	7.6544	845.632	-1.9971	-1.8704	-2.469
45.6872	-6.6976	846.947	-1.7305	-1.7349	-2.4035
87.9658	-16.5048	901.904	0.2797	-2.0626	-2.2462
70.6836	-4.2458	859.505	0.0787	-1.1712	-2.0189
95.381	-41.7404	827.632	0.7691	-2.1195	-1.8791
78.5174	-10.2258	874.695	2.067	-2.6875	-1.7218
75.1088	-20.5712	876.847	2.032	-2.9891	-1.429
66.677	-3.4086	911.531	2.9934	-2.6701	-1.2979
73.9726	-9.269	944.9	3.4698	-3.1639	-1.0969
46.2852	17.5812	997.165	4.1428	-2.5783	-0.9527
42.2188	6.9966	1006.79	4.8813	-1.783	-0.8434
60.8764	5.2624	1035.86	5.5062	-0.6249	-0.8128
53.8798	-7.2358	1069.34	5.4625	-0.3103	-0.721
62.491	-11.1826	1050.51	4.4006	-0.2447	-0.5943
26.7904	51.1888	1034.24	3.5572	-0.0262	-0.4326
-8.2524	16.5646	1021.98	3.1639	1.1318	-0.437
-8.8504	13.754	1066.17	3.7495	0.1923	-0.4545
3.887	12.857	1045.12	2.9279	-0.284	-0.5069
80.2516	102.856	951.657	2.5783	-1.783	-0.4326
15.9068	60.697	1059.42	3.5135	-2.9148	-0.4851
-91.3744	29.1824	938.322	0.7342	-0.7822	-0.2797
75.4078	67.873	854.243	3.531	-1.1362	-0.402
35.7006	93.886	980.361	5.7597	-2.5128	-0.7036
-8.372	-31.395	852.688	0.9352	-2.823	-0.7385
-24.6376	125.281	1091.71	4.6978	-2.7793	-0.5025
7.5946	37.4348	1153.6	3.5834	-3.6533	-0.52
-66.6172	26.312	1615.5	6.7254	-2.2243	-1.1231
88.5638	85.5738	935.691	-4.4181	0.9264	-1.0007
-55.614	40.9032	818.961	-1.6519	3.1114	-1.11
65.8398	-11.661	1234.93	3.8806	0.1923	-1.512
20.631	132.696	960.627	-1.9315	2.5739	-0.909
-20.0928	-43.2354	586.638	-6.6948	4.5754	-0.9221
-20.0928	75.647	973.424	0.9701	3.2119	-1.713
40.1258	25.9532	1179.73	-1.0313	0.9789	-1.6693
122.231	47.3018	911.412	-6.2797	2.9323	-0.9614
-29.1226	47.3018	730.876	-5.7728	4.134	-1.1275
42.9962	-32.9498	692.305	-2.3642	5.1741	-1.5732
68.2916	53.4014	738.65	-2.9323	0.9527	-0.7735
74.152	-43.5344	582.033	-2.6744	-1.1493	-0.5419
102.677	-6.4584	582.033	-0.2884	3.5047	-0.8216
-35.2222	115.593	418.839	2.5521	-3.4654	-0.6249
95.3212	-19.6742	587.655	6.6205	-5.1653	-0.3889
46.345	93.288	963.856	5.244	-2.7881	-0.5419
-36.478	56.212	778.177	6.6162	0.1573	-1.0881
36.9564	-36.2388	797.612	10.606	-3.1726	-0.8085
86.8296	-14.7706	982.215	9.968	-3.3212	-0.8172
45.5078	11.6012	1126.63	9.4742	-3.5659	-0.6861
44.252	28.6442	1106.54	8.2986	-3.3299	-0.6948
54.0592	14.1128	1130.28	8.1806	-4.4967	-0.3933
10.166	19.9134	1208.92	7.5077	-4.5623	-0.4501
30.9764	37.674	1236.19	7.0182	-4.0903	-0.5943
59.6804	82.524	1106.84	6.8478	-3.1289	-0.3365
22.6642	45.8666	1002.31	10.2039	-3.815	-0.1355
4.0066	61.3548	1309.62	8.0932	-2.5477	-0.3583
59.9794	8.3122	1348.13	7.7786	-0.3933	-0.52
3.6478	79.235	1370.56	3.3955	-0.4108	-0.3977
13.754	45.0294	1219.44	3.9767	0.472	-0.472
22.0662	108.896	1187.99	1.7305	1.7611	-0.5025
-34.983	46.4048	1128.01	2.5739	0.2753	-0.3846
31.8136	89.999	1139.19	2.5739	3.4304	-0.8303
13.8138	92.391	977.192	-0.284	2.4035	-0.8434
8.8504	80.8496	965.591	1.2586	2.7138	-0.8915
36.6574	70.2052	889.226	0.8128	2.15	-1.0313
34.086	63.5076	920.322	2.3074	2.15	-1.0138
43.5344	38.2122	815.074	1.1712	1.5601	-0.8565
41.262	73.255	816.689	2.4516	0.5375	-0.8565
37.4946	52.0858	785.054	2.1063	-0.3715	-0.8172
24.9366	77.0822	853.047	3.5965	-1.5645	-0.7866
17.641	53.82	831.519	2.9104	-2.5215	-0.8696
10.9434	91.0754	853.824	3.0896	-3.78	-0.9308
27.2688	91.0754	935.93	3.378	-4.0685	-1.0095
48.9164	35.8202	1003.62	3.6664	-4.1602	-0.9658
13.6344	64.7036	1016.84	2.8186	-3.9811	-0.8303
38.9896	33.6674	1026.35	2.4865	-3.7058	-0.7254
34.8036	66.2584	1058.64	2.8361	-3.2294	-0.7254
24.219	65.182	1055.83	1.7917	-3.177	-0.721
33.1292	95.979	1083.93	1.2105	-2.9454	-0.7167
15.3686	76.1852	1054.33	0.1835	-2.5259	-0.6948
0.7774	64.5242	1022.7	-0.1835	-2.0626	-0.7167
27.508	97.2348	991.604	0.5157	-0.7779	-0.7298
29.8402	35.1624	964.753	0.236	-0.7429	-0.721
48.139	65.1222	1033.16	1.0357	-0.5331	-0.8827
47.6008	56.511	977.371	-0.4851	-1.0401	-0.7997
30.0196	69.667	949.385	-0.8172	-1.6082	-0.6905
27.209	67.0956	919.126	-0.4151	-2.1763	-0.6511
25.116	76.1254	898.017	0.2272	-1.8529	-0.6905
36.8966	67.0956	869.911	0.1442	-2.5739	-0.7036
58.4844	81.5672	936.169	1.9621	-3.0197	-0.7036
32.3518	60.0392	935.691	2.15	-2.5739	-0.721
41.0228	55.1356	951.597	2.4079	-3.1114	-0.6511
40.4846	52.0858	962.421	2.4516	-3.0983	-0.673
18.3586	53.1024	1023.06	3.6271	-2.3554	-0.8085
60.1588	55.1356	1042.13	3.5703	-2.067	-0.909
71.8796	55.2552	1071.5	3.0634	-1.9272	-0.7647
33.1292	40.1258	1004.46	2.0058	-1.6038	-0.6118
65.1222	52.0858	1094.64	3.1202	-1.1581	-0.6599
50.7104	50.1124	1002.67	1.3984	-0.6424	-0.7429
34.2056	57.1688	992.62	1.2323	-1.2105	-0.6293
42.3982	82.225	969.238	1.4639	-0.7647	-0.6774
51.6074	42.8766	942.687	1.7786	0.083	-0.7254
29.7206	56.0326	1023.6	3.2688	0.2141	-0.5856
73.1354	43.2354	932.402	1.6169	-0.201	-0.4501
33.9664	72.2982	938.202	3.5878	0.1355	-0.6031
64.2252	53.9994	908.482	3.6752	-0.0699	-0.673
46.943	76.7234	937.664	4.0117	-0.3715	-0.5288
49.933	54.8366	909.02	3.8412	-1.0182	-0.5768
23.92	81.1486	976.355	5.5324	-0.8347	-0.6905
49.634	49.4546	964.096	4.1253	-1.6825	-0.6599
37.0162	88.4442	1000.45	4.4792	-1.7698	-0.638
38.9298	62.9694	1070.42	4.3438	-2.3117	-0.6555
41.9796	77.6802	1080.29	3.7538	-1.9621	-0.6642
25.5944	83.9592	1023.42	2.5783	-1.2892	-0.7079
41.5012	64.0458	1025.93	2.9104	-1.1668	-0.7298
37.7338	81.8064	1055.59	3.0022	-1.0969	-0.8216
27.6276	63.3282	974.74	1.1493	-0.6555	-0.7516
32.2322	94.2448	989.63	2.0801	-0.4501	-0.6992
47.6606	66.1986	1041.9	1.9053	-0.638	-0.6817
60.5774	75.1088	1027.78	1.1843	-1.0925	-0.5943
27.2688	120.497	933.777	-0.083	-1.5732	-0.4763
12.1992	70.564	873.379	0.3365	-0.8827	-0.5069
50.3516	100.524	948.129	2.6089	-0.7647	-0.5943
54.418	68.6504	926.601	2.1981	-1.1493	-0.4239
46.046	53.9396	876.01	2.1457	-1.8267	-0.2884
33.3086	94.185	950.102	3.4873	-2.0626	-0.2972
46.7636	82.2848	1018.39	2.8667	-3.4304	0.0306
-1.794	103.215	995.132	1.9097	-3.3518	0.2972
52.4446	96.6966	1036.21	2.9279	-3.461	0.1879
33.4282	82.6436	948.249	1.5863	-1.5295	0.0655
58.6638	74.0922	1054.27	3.4785	-3.8019	0.6511
42.3384	48.6772	996.328	0.9527	-2.7531	0.8784
44.4314	137.361	1111.32	3.5965	-2.8186	0.9876
27.0894	70.6836	1019.29	0.5768	-2.7225	1.2236
-28.5844	128.989	1056.07	2.587	-0.3889	1.0007
69.7866	74.75	986.401	0.8434	-0.5506	0.673
-3.1096	103.454	1065.1	1.8922	-0.9745	0.721
12.3786	111.946	945.677	-0.3409	-1.7043	0.839
34.0262	136.523	917.691	0.3889	-1.3066	0.7167
8.4916	113.082	998.54	0.9395	-2.3642	0.5331
-20.5114	131.381	1063.96	0.8085	-2.9192	0.284
56.7502	72.358	817.526	-1.7873	-1.8747	-0.0393
-0.4784	92.391	875.95	1.5033	-1.984	-0.1704
76.245	85.1552	972.169	1.8616	-3.8237	0
32.4116	72.5374	949.983	0.4545	-2.9629	-0.0131
31.993	100.584	995.311	1.4246	-3.0503	-0.2797
33.3684	95.7996	1028.8	0.8128	-2.9192	-0.2972
31.993	65.3614	1042.91	0.4982	-2.4341	-0.3452
43.355	62.3116	983.65	-0.4283	-2.3423	-0.4064
46.644	94.3644	960.089	-0.3977	-2.9847	-0.4545
27.5678	82.4044	1029.88	0.4807	-2.3685	-0.4851
65.182	70.7434	978.268	0.1398	-1.8179	-0.5288
51.9064	66.2584	922.056	0.3277	-1.2149	-0.4763
55.614	15.847	943.465	1.4727	-2.2549	-0.4501
86.2316	60.2784	921.996	1.9315	-1.831	-0.4195
69.069	55.7336	899.691	2.1937	-2.4079	-0.201
65.8996	63.5674	937.784	2.7531	-3.295	-0.0393
45.9264	58.903	1036.69	4.3045	-3.1683	-0.1792
53.4014	41.6208	953.092	3.6577	-3.1377	-0.2316
47.84	64.285	1037.35	4.724	-3.0546	-0.1704
68.2916	41.3218	987.896	4.3088	-3.413	-0.0918
56.7502	87.2482	1101.64	6.1792	-3.0546	-0.0743
58.305	13.3354	1096.25	4.5098	-3.6839	-0.0481
42.159	84.1984	1050.09	3.6271	-3.3343	-0.0218
20.1526	96.1584	1066.23	3.5397	-3.6533	0.0262
32.1724	81.1486	1161.14	4.2345	-3.5528	-0.0481
30.3784	87.308	1096.79	3.0721	-2.4734	-0.1486
42.0992	62.7302	1063.78	2.5084	-2.0364	-0.2403
38.6308	78.637	1082.26	3.0765	-1.6519	-0.2491
40.6042	53.8798	1093.98	2.2462	-1.3722	-0.2272
44.1324	101.301	1034.6	1.6737	-0.8478	-0.2666
44.551	73.1952	970.016	0.8696	-1.5076	-0.3146
25.7738	97.1152	1025.87	2.0714	-1.1668	-0.4894
32.7106	81.5074	972.647	0.9133	-0.8085	-0.5419
50.9496	70.2052	940.475	1.3197	-0.8478	-0.5288
53.222	63.388	954.767	1.8354	-0.4195	-0.6293
65.78	46.8832	951.179	1.7742	-0.6555	-0.5681
56.4512	55.1356	932.461	1.2061	-0.7866	-0.5419
52.923	67.3946	933.538	1.1974	-1.394	-0.4195
48.0792	62.5508	970.913	1.6606	-1.3591	-0.4283
48.0194	80.0722	962.122	1.4639	-0.9789	-0.402
58.006	58.4246	914.222	0.8784	-1.2586	-0.3802
46.644	87.4276	947.292	2.8361	-0.7036	-0.319
52.2652	38.4514	909.139	2.4385	0.0524	-0.354
72.5374	53.7602	940.056	3.8019	0.4632	-0.4326
68.6504	45.149	930.01	3.4916	0.2272	-0.4588
55.016	55.1954	995.132	4.1209	-0.1879	-0.4763
58.6638	61.9528	1009.01	3.6926	0.2753	-0.4807
50.1124	53.3416	969.358	2.8405	0.153	-0.4064
37.7338	57.7668	1002.25	2.8798	-0.5594	-0.3671
45.747	70.0856	956.621	2.8143	-0.4545	-0.4326
43.7138	78.039	940.176	3.0109	-0.0131	-0.52
57.3482	60.8764	939.518	3.1508	-0.6205	-0.472
52.8034	73.0158	981.497	4.2695	-0.6599	-0.4807
44.1324	51.9064	989.271	4.0379	-0.7866	-0.472
39.9464	70.8032	983.949	4.1122	-0.402	-0.4807
73.7932	65.2418	990.647	3.7363	-0.8085	-0.3671
33.488	51.3682	998.241	3.5047	-1.4727	-0.2229
39.3484	57.408	1070.06	3.5965	-1.7393	-0.2666
46.046	88.1452	999.437	1.2935	-2.6176	-0.2578
-0.3588	122.112	983.531	1.2105	-3.4873	-0.0568
-0.6578	111.407	1083.82	2.3248	-1.9184	-0.3452
32.89	79.3546	1004.4	0.6686	-0.5725	-0.5987
36.3584	66.6172	932.103	0.4545	-0.7167	-0.5069
22.724	76.6038	1000.57	2.2768	-1.3023	-0.3627
54.6572	74.8098	980.66	1.4421	-0.0175	-0.3802
44.3716	61.1754	1025.09	1.9184	-0.1049	-0.3321
49.2154	94.185	1014.81	0.791	-1.1187	-0.118
12.1394	64.7036	969.777	0.5899	-0.6468	-0.3277
7.8338	100.404	903.817	1.4596	0.9046	-0.4414
84.916	46.2254	756.171	-0.4195	-2.1326	-0.0306
14.2922	81.328	926.541	3.5659	-2.9497	0.1136
65.6604	79.1154	980.899	3.2119	-2.0583	-0.0874
62.6704	74.2118	965.232	3.3168	-2.032	-0.0175
52.325	40.5444	925.525	2.7007	-2.8842	0.1617
22.6642	92.5106	1090.03	5.2178	-2.5171	0.153
76.544	34.1458	926.063	2.3161	-2.1588	0.1835
8.8504	94.7232	1086.09	4.5754	-2.6045	0.3933
83.0024	31.7538	1006.19	2.1588	-3.4654	0.4501
5.8006	115.952	1140.57	3.4741	-2.0626	0.3758
40.1258	63.2684	1027.24	0.6336	-2.3336	0.3977
2.4518	120.557	1058.22	1.7436	-1.4814	0.4326
2.9302	74.5706	970.076	1.1886	-0.5637	0.2709
37.9132	95.082	1003.92	2.6657	0.5288	0.1136
35.4016	80.73	1007.33	2.2331	1.1056	0.0699
39.0494	84.916	977.192	2.1981	1.3547	0.0262
33.7272	62.192	956.92	2.5171	2.1937	-0.0481
49.3948	54.3582	976.474	2.1631	1.7742	-0.1617
47.6008	70.6238	894.189	0.8653	0.992	-0.1617
14.4118	95.3212	917.87	1.6387	0.1311	-0.1792
26.9698	85.6934	907.345	1.4071	0.0655	-0.2491
43.7736	89.401	885.638	1.5164	-0.8259	-0.1005
30.797	82.0456	820.994	2.185	-0.7953	-0.1311
42.8168	61.9528	926.84	4.6759	-1.8398	-0.1136
49.2752	68.471	902.083	4.7502	-0.9483	-0.1442
57.5276	60.7568	920.023	5.3707	-1.3722	0.1136
67.0956	64.6438	981.916	6.3758	-2.2899	0.2054
33.189	62.6106	1071.56	6.52	-1.9971	0.1879
30.3784	73.7932	1068.39	5.0736	-2.539	0.3365
11.9002	92.6302	1096.43	4.4443	-2.4734	0.354
0.0598	85.3944	1147.86	3.9417	-2.22	0.2753
5.382	92.9292	1174.47	3.3999	-0.8303	0.153
14.1128	75.348	1062.35	2.0845	0.0874	-0.0175
14.5912	79.6536	1089.97	2.4909	0.3277	-0.0961
22.3054	83.122	1082.26	2.185	0.9002	-0.153
18.8968	71.9992	1003.32	1.1581	1.1799	-0.1661
32.89	72.1188	968.162	1.3984	0.6774	-0.1049
16.744	79.7732	959.73	1.3197	0.1398	-0.0918
20.1526	80.4908	905.133	0.8434	-0.319	-0.118
9.2092	87.7266	899.452	1.2105	-0.8827	-0.1617
19.6742	88.205	894.728	1.5339	-1.1886	-0.201
-0.7774	75.7068	927.319	2.0845	-1.4071	-0.1923
18.4184	65.1222	954.408	2.2942	-1.2149	-0.3452
13.6942	89.2814	1019.35	2.4603	-1.2411	-0.3059
16.744	51.2486	986.64	1.4203	-1.0838	-0.284
-0.7774	92.1518	1043.21	2.6875	-0.4851	-0.3452
11.362	46.2852	981.139	1.4508	-0.1573	-0.3802
52.325	61.0558	984.607	2.4385	-0.1136	-0.5113
28.6442	57.2884	970.614	1.4902	-0.5594	-0.5856
31.694	61.4146	943.345	0.7254	-1.0794	-0.4195
10.2856	82.9426	904.595	1.4683	-1.4028	-0.3103
26.8502	52.3848	920.442	2.1238	-2.1457	-0.2753
24.9964	56.6306	943.046	2.8186	-1.6475	-0.3583
49.8732	61.5342	995.67	3.1551	-1.9578	-0.3321
21.229	48.1988	988.315	2.8055	-1.6169	-0.354
23.3818	36.4182	1035.26	3.7232	-1.7174	-0.3452
43.8932	63.5076	1019.71	2.2637	-1.8354	-0.153
0.5382	51.0094	976.534	1.4902	-2.2287	-0.1267
5.1428	97.474	1071.74	3.0852	-1.7524	-0.1835
17.5214	53.4014	1022.7	1.5164	-1.6344	-0.201
-6.3986	73.554	1059.95	2.7618	-0.8521	-0.2622
26.0728	52.624	952.554	1.228	-0.9614	-0.3758
22.425	79.1752	1021.32	3.2513	-0.8827	-0.4807
18.9566	37.9132	978.268	1.8354	-1.1056	-0.5113
6.3388	66.5574	968.282	1.8485	-1.4203	-0.3846
17.4616	61.594	897.837	1.6125	-1.6431	-0.3496
1.2558	70.3846	1049.13	3.8674	-2.1457	-0.4763
13.9932	49.2154	1010.68	2.2462	-1.6519	-0.4894
18.9566	68.2916	975.159	2.504	-1.6956	-0.5025
20.8702	54.9562	975.278	3.0896	-1.6082	-0.6074
16.3852	46.345	1027.06	4.016	-1.4552	-0.6555
40.2454	54.5376	978.926	3.5441	-1.0838	-0.5899
38.1524	37.7936	961.704	3.4436	-1.3154	-0.5856
33.787	37.4946	1071.5	3.8587	-1.6781	-0.5681
25.714	57.408	1028.68	2.2112	-1.3984	-0.4807
19.2556	46.943	1001.59	1.6125	-2.1806	-0.52
0.7774	67.5142	1043.69	1.4814	-2.3423	-0.6074
11.2424	88.205	1018.57	0.7735	-2.0408	-0.6992
-0.4784	70.0856	993.637	0.7254	-0.9964	-0.7953
21.4682	63.5076	1012.11	1.6082	-0.6642	-0.9352
32.1724	46.2852	955.425	1.3678	0.3496	-1.0575
22.724	46.2254	927.438	1.6956	0.4108	-1.1187
38.0328	32.5312	939.637	2.0408	0.153	-1.3503
39.5278	56.2718	1002.37	2.4122	-0.3671	-1.4552
26.8502	52.1456	928.515	0.9701	-0.7298	-1.4334
47.0028	40.9032	968.939	1.6213	-1.5557	-1.6256
3.1096	52.9828	962.959	1.2935	-1.6431	-1.6475
74.6902	41.9198	905.372	0.1966	-3.9898	-1.6213
3.289	80.9094	907.704	0.9002	-4.1821	-1.5339
25.2356	46.345	884.741	1.2017	-2.8361	-1.7698
39.5876	37.7338	1002.13	3.2994	-2.0146	-1.783
68.8298	-14.95	1002.19	2.9803	-2.9235	-1.8966
58.903	19.9732	1093.92	3.6664	-3.1814	-1.9184
63.6272	42.8766	998.78	1.276	-3.1945	-1.5601
51.7868	37.0162	1065.46	2.2025	-2.421	-1.3154
-17.8802	51.4878	1199.47	2.3729	-2.7881	-1.2804
86.5904	14.7108	942.807	-0.756	-2.2112	-1.547
7.3554	53.4014	938.86	1.0881	-1.3897	-1.7393
82.7632	39.4082	822.25	0.6948	-2.4559	-1.5208
40.2454	58.9628	1108.63	4.2214	-2.2287	-1.4552
92.69	-52.2054	1044.95	2.0146	-1.3547	-1.4858
13.8736	88.7432	1102.59	1.8704	-0.6468	-1.4421
71.3414	16.3852	889.585	-0.3758	-0.9439	-1.5863
-11.7208	88.3246	1012.11	1.7611	-0.4982	-1.5514
78.2782	13.2158	919.664	-0.6424	-2.1195	-1.5601
14.2922	83.421	1006.49	1.8092	-0.874	-1.7174
70.265	17.342	923.611	0.3671	-1.7698	-1.7436
53.82	60.2186	980.899	2.1763	-1.3591	-1.7349
57.5874	35.7006	902.442	1.6213	-1.3897	-1.7043
55.9728	20.332	912.787	2.775	-1.5907	-1.6387
71.3414	29.1824	916.913	3.461	-2.0757	-1.5514
75.8264	25.3552	945.617	3.2207	-3.2207	-1.4989
51.3084	41.6806	967.743	2.9497	-4.2302	-1.4334
34.6242	70.1454	1017.98	3.461	-4.2739	-1.4334
28.7638	36.5378	1037.83	2.7138	-4.3875	-1.4858
38.3318	49.5144	1103.43	3.0852	-4.4137	-1.5863
42.3384	60.2186	1074.07	1.9272	-4.1515	-1.6868
50.1722	39.2886	1023.78	1.311	-3.9068	-1.5907
48.438	56.1522	1070.96	2.0626	-3.5572	-1.5776
53.521	39.1092	1090.75	1.6999	-3.177	-1.6169
50.83	24.7572	1041.36	0.7516	-2.7706	-1.5688
66.7966	50.1722	1061.03	0.9395	-2.823	-1.5601
39.0494	22.724	1043.57	-0.3103	-2.8318	-1.3765
75.4078	35.7006	1013.85	-1.1799	-4.3438	-1.3984
29.9	106.743	977.491	-1.6125	-4.724	-1.1406
-3.6478	44.9696	883.844	-1.6387	-2.9017	-1.228
44.551	44.7304	1007.03	1.4203	-1.4115	-1.6344
117.806	2.8704	974.082	-0.0437	-2.8711	-1.7961
61.893	45.3882	955.425	-0.3627	-3.6489	-1.5426
33.6076	45.6274	948.189	-1.2804	-2.9891	-1.2061
31.993	60.2186	965.77	-0.4894	-1.3547	-1.2629
83.7798	-6.0996	1082.56	0.3802	-2.705	-1.4071
55.6738	44.0128	963.737	-1.63	-3.6926	-1.2629
59.6804	27.8668	873.738	-1.7567	-1.2498	-1.4989
54.5376	33.0694	881.691	-0.3977	-2.386	-1.2804
77.0822	-34.9232	1023.84	0.0481	-4.3831	-1.0182
85.0954	44.551	1078.61	-1.1406	-5.0342	-0.9789
72.2384	104.112	721.128	-3.3999	-5.2877	-0.6948
-70.1454	113.201	759.281	2.0932	-1.8135	-0.5157
75.5274	-28.1658	1024.85	5.3052	-1.3023	-0.791
147.527	-12.4384	1074.85	5.5543	-1.7698	-0.8172
102.617	5.382	993.099	4.5579	-1.7961	-0.5681
47.3018	3.0498	1030.47	4.6409	-0.7647	-0.2491
167.261	-15.9666	1009.12	2.587	-2.15	-0.0218
13.754	36.2986	1238.64	3.6752	-2.8842	0.4982
-21.1094	96.1584	1108.03	-0.4763	-4.405	0.9439
99.2082	47.3018	751.267	-1.9141	0.3671	0.2141
52.8632	57.5276	976.115	3.5921	0.2928	0.7604
93.7066	-27.3884	1047.88	2.3685	-3.9942	1.4334
-39.1092	60.996	1183.02	3.0415	-0.9046	1.0051
55.614	129.766	840.967	-0.2141	0.5463	0.6861
39.4082	103.275	982.036	4.0947	-0.1704	1.1449
-6.877	43.1158	969.358	3.4654	0.8172	1.1799
39.468	109.135	1009.07	4.3045	1.7786	0.839
39.2886	52.923	808.855	2.4559	0.3889	0.7167
-32.0528	99.3278	924.927	3.7232	-0.52	0.5506
31.2156	101.6	1026.29	3.7363	-0.2666	0.0044
-0.5382	115.833	1078.97	3.094	-0.5594	-0.1355
-23.6808	13.2158	1037.17	1.2892	-0.6817	-0.0787
-26.0728	178.204	952.195	2.6045	3.732	-0.4195
68.2318	20.033	945.797	2.8973	7.3285	-0.7254
-20.3918	-103.633	1082.92	5.1872	5.0911	-0.721
256.841	18.1792	904.953	-0.284	0.6249	-1.027
79.833	133.832	900.767	-1.8704	-1.7917	0.2272
-72.1188	38.272	800.124	-2.2418	1.3547	0.3234
-10.8238	89.8196	999.856	1.4465	1.5557	-0.0218
108.597	47.1822	795.4	-2.4297	-1.949	-0.2666
14.8902	91.8528	717.48	1.783	-1.4159	0.0874
60.398	16.3852	478.699	1.5514	2.5696	-0.0961
176.769	62.5508	803.234	8.338	-1.1755	0.3365
-33.787	-79.0556	1322.72	8.7924	-4.5535	0.8696
164.689	-8.4916	1119.81	4.1165	-4.3569	0.7254
128.63	-21.3486	716.105	-1.0881	1.075	0.3715
-45.149	94.0056	927.618	6.2098	-3.0153	1.6737
106.803	86.112	1153.18	4.1253	-8.1675	2.303
-199.014	196.563	1093.86	5.0299	-1.9184	1.6038
13.3952	119.959	1015.76	3.2294	-0.2272	0.52
8.1926	117.088	1033.46	5.1697	-2.4559	0.4545
-16.6244	118.284	1232.66	6.2928	-1.5863	0.1311
5.083	66.8564	1105.88	4.134	0.6905	-0.3015
55.9728	73.3148	1049.13	2.858	-0.2272	-0.1792
28.8236	88.6834	1070.72	2.9235	-0.5157	-0.201
30.0794	80.7898	1071.74	2.1719	-0.3277	-0.3059
35.0428	88.3246	1015.1	0.6686	-0.957	-0.2753
-1.4352	95.6202	974.8	0.3977	-0.6599	-0.4326
27.6874	80.2516	935.093	0.5463	-0.9308	-0.555
27.6874	76.0058	976.295	0.8653	-0.9002	-0.6249
45.9264	70.5042	973.185	0.9308	-0.9789	-0.7079
49.335	51.9662	918.887	0.0743	-1.1143	-0.5899
47.1224	51.9662	947.411	1.2367	-1.346	-0.5069
31.7538	59.202	915.717	0.3452	-1.0575	-0.4851
72.8364	55.7336	915.119	0.909	-1.3197	-0.402
63.986	74.3314	927.737	0.7866	-1.8267	-0.2622
52.624	46.8832	927.737	1.0881	-2.3074	-0.2709
58.4246	59.1422	968.7	-0.0131	-2.067	-0.1923
42.5776	56.4512	948.906	0.8521	-2.2899	-0.118
49.5144	80.3712	957.518	0.1442	-2.1763	-0.0481
39.9464	66.677	915.06	1.4203	-2.0495	-0.1005
43.8334	58.006	948.847	2.2768	-1.0838	-0.1442
47.4812	73.7932	997.763	1.2717	-1.429	-0.0568
86.5904	38.9896	938.74	1.7611	-1.3591	-0.0087
67.574	45.3284	964.933	1.4334	-1.7436	-0.0044
58.5442	74.0324	995.431	0.3452	-1.7655	0.0612
51.7868	60.996	955.724	0.9614	-1.5732	0.0175
24.5778	68.1122	974.86	0.1442	-1.831	-0.0262
48.737	67.873	998.361	-0.3321	-1.5776	-0.1049
36.4182	85.4542	969.478	0.5812	-1.1886	-0.1311
43.5942	89.8794	981.079	-0.0175	-0.8696	-0.1355
73.0158	41.2022	973.066	0.6686	-0.7473	-0.118
61.7734	68.8298	990.766	-0.3627	-0.9352	-0.1573
63.0292	54.7768	940.235	0.0175	-1.1318	-0.1748
45.5676	70.564	940.176	-0.6992	-0.9658	-0.1442
60.2186	72.7766	862.077	-0.6992	-1.4508	-0.0743
37.1358	68.7102	928.216	0.7167	-1.5295	-0.0961
52.5044	79.534	914.761	0.2666	-1.3634	-0.2447
66.7966	72.8364	959.491	0.8172	-1.3634	-0.2098
56.81	62.6106	948.548	0.5681	-1.3285	-0.2491
73.853	55.614	946.275	0.2753	-1.7698	-0.2535
56.511	73.1354	997.584	0.9701	-1.7917	-0.2535
72.1786	58.7236	909.139	-0.1966	-1.7087	-0.1442
59.5608	70.8032	953.93	1.0532	-1.8223	-0.1879
58.6638	64.5242	962.84	0.5987	-2.1894	-0.1224
54.5376	67.574	947.411	0.9264	-1.4858	-0.1966
70.564	69.8464	955.484	1.5776	-1.4203	-0.1704
74.75	51.1888	950.76	1.9578	-1.3066	-0.1486
65.8996	45.448	988.972	2.6351	-0.7735	-0.2403
94.3644	49.634	969.956	2.5608	-0.7647	-0.284
79.235	49.7536	928.515	2.3205	-0.8915	-0.236
61.4146	46.8832	993.637	3.2688	-1.1449	-0.118
65.2418	59.6206	951.179	2.587	-0.8434	-0.0699
83.2416	63.6272	937.724	3.2119	-0.3758	-0.0524
69.0092	48.6174	990.348	4.0466	-0.2622	-0.118
84.7366	35.88	1033.82	4.0859	-0.5375	-0.118
76.0058	40.7238	983.531	3.2994	-0.5637	-0.1224
79.7134	46.7636	963.916	3.6883	-1.0881	0.0874
76.7832	91.0156	990.467	5.0386	-1.3853	0.3277
81.328	33.5478	1009.07	5.1741	-0.0874	0.1092
73.853	53.3416	1016.24	4.0859	-0.0874	0.1486
87.607	60.1588	926.721	1.7218	-1.346	0.3365
9.8072	116.789	1018.39	2.8405	-1.9883	0.472
42.3384	93.2282	965.77	1.2017	-1.7567	0.2884
34.2056	129.766	1121.91	2.5171	-1.595	0.1792
25.7738	90.0588	1084.11	0.4588	-0.721	0
29.7804	74.0922	1147.2	1.3416	0.4676	-0.3452
64.6438	68.5906	1036.27	0.3409	1.9883	-0.3715
68.3514	53.7004	846.11	-1.1668	2.032	-0.0743
72.4178	71.461	837.977	0.1005	0.4151	-0.0218
66.7368	93.8262	879.479	0.2797	-0.4807	-0.1049
52.3848	104.65	885.638	0.7866	-1.512	-0.1879
67.9926	103.095	876.07	0.7298	-1.9097	-0.2098
41.9198	82.7034	820.934	1.2717	-2.102	-0.201
40.4846	72.5972	885.518	3.5834	-2.0058	-0.3277
83.4808	62.3714	900.169	4.8332	-2.3292	-0.3103
97.5936	45.3882	910.276	5.5237	-1.5863	-0.3409
102.019	30.498	986.222	5.9825	-2.3423	-0.2272
92.6302	45.2686	983.949	4.8594	-2.2025	-0.083
58.8432	72.956	1086.33	6.0175	-2.1937	0.0481
77.6802	55.4944	1098.47	5.6766	-1.4246	0.0175
84.4376	65.8398	1077.24	5.0036	-0.5025	0.1136
82.5838	53.0426	1091.89	5.0168	0.402	0.083
102.736	32.591	1127.89	4.7196	0.52	0.1748
55.9728	59.6804	1105.34	3.2032	1.2411	0.284
67.3946	70.6836	956.74	0.9002	0.9701	0.4632
48.8566	108.358	952.195	2.6875	1.5732	0.3715
44.7304	92.5704	998.839	3.3649	1.6125	0.2535
67.6936	105.726	985.863	2.9541	1.9883	0.1923
42.8766	99.866	935.571	2.4953	1.9578	0.2098
37.973	88.5638	916.614	3.2819	1.9053	0.0918
59.6206	90.0588	908.183	3.6096	1.8135	0.0044
46.1656	77.3214	899.332	3.5222	1.3503	-0.0218
81.2084	96.9358	879.299	3.1071	0.3889	-0.118
52.3848	97.4142	950.999	3.3999	-0.3802	-0.1835
25.415	111.886	985.504	2.9017	-0.5856	-0.118
40.7836	100.524	927.02	1.4945	-1.4465	-0.0874
25.5346	110.032	1000.99	2.8667	-1.5819	-0.2709
38.3318	102.437	955.783	1.8441	-1.3328	-0.402
58.6638	95.9192	970.793	2.2418	-1.3678	-0.3715
54.5974	97.5338	941.611	2.1981	-1.0532	-0.4457
70.3248	55.8532	1017.62	3.2819	-1.547	-0.402
66.4976	78.7566	975.936	2.9061	-1.311	-0.2491
72.5374	69.9062	903.937	2.4428	-1.3897	-0.1661
67.3348	83.421	1026.29	4.5317	-2.3161	-0.1835
76.843	59.5608	1006.73	2.8667	-2.6832	-0.0874
49.6938	94.783	979.883	2.3554	-2.7312	0.0787
46.1656	78.637	959.431	1.8704	-3.3955	0.0787
46.046	106.085	1016.24	3.343	-3.024	-0.0218
53.0426	78.338	1065.7	2.976	-2.8798	-0.0306
74.75	88.5638	1035.86	2.0976	-2.2549	-0.0306
44.0128	91.3146	1026.47	1.9228	-1.8135	0.0262
45.3882	75.8862	1112.58	2.7575	-1.4115	0.0262
51.5476	81.8662	1058.88	1.7742	-0.3671	0.0262
65.1222	59.6804	957.278	0.3889	-0.284	0.0655
53.9396	108.956	1001.83	1.5339	-0.4195	-0.0918
71.8198	74.5706	994.534	0.4414	-0.4632	-0.153
51.6074	103.394	995.909	0.9133	-0.4501	-0.1005
65.1222	73.0756	883.724	-0.9964	-1.0575	-0.0524
22.7838	105.547	915.478	0.4064	-1.6169	-0.1224
49.5144	92.1518	898.136	0.5637	-1.2542	-0.2316
54.5974	93.1684	940.056	1.4465	-1.0925	-0.3321
73.9726	49.2752	902.502	0.3802	-1.3154	-0.3671
44.85	89.6402	973.963	1.3023	-1.0925	-0.437
73.4344	70.6836	958.534	0.5768	-1.2804	-0.472
47.3018	73.7334	979.943	0.3409	-0.8478	-0.472
57.8864	66.4378	955.724	-0.0874	-0.7866	-0.4982
45.2088	82.7034	970.913	0.4501	-0.4195	-0.6293
60.8166	45.2088	949.445	0.2928	-0.2535	-0.7779
60.996	72.1188	974.68	1.0401	0.5331	-0.8827
85.8728	42.0992	883.425	-0.4108	-0.0393	-0.9046
64.1056	59.0824	943.046	1.783	-0.0874	-0.9614
75.7666	35.1624	900.708	0.6948	-0.9964	-0.9789
64.7634	83.3014	878.522	1.3285	-0.9352	-0.8478
51.0692	37.0162	838.157	1.0838	-1.6519	-0.8172
53.8798	76.7234	963.916	4.2389	-1.429	-0.8827
75.2882	22.3054	917.511	3.0459	-1.2586	-0.9046
73.1354	45.5078	973.066	5.0168	-1.0095	-0.9395
88.3246	28.1658	973.125	4.6191	-0.354	-0.9395
91.7332	26.312	1037.29	5.6985	-0.0175	-0.8434
84.3778	24.6376	1015.94	4.9774	0.1267	-0.7123
56.8698	32.6508	1036.51	4.7502	-0.2098	-0.5812
62.491	50.83	1031.73	4.4661	0.083	-0.6205
53.9994	64.584	1039.74	4.1165	0.2666	-0.756
58.903	40.7836	1050.81	3.7626	-0.4676	-0.7036
42.3982	75.5274	1025.09	3.6052	-0.2666	-0.6992
52.5642	49.8134	966.966	3.3649	-0.1617	-0.8347
48.1988	62.3116	954.827	3.8587	-0.4457	-0.7822
47.7802	55.4944	977.311	3.7669	-1.1056	-0.7254
35.282	74.451	968.939	3.4436	-1.2454	-0.7298
38.571	46.2254	966.906	3.0109	-1.1231	-0.8958
34.3252	85.9924	1079.69	3.6315	-2.0976	-1.0226
50.1124	39.2886	1019.59	0.3583	-3.4741	-1.11
2.3322	114.039	1097.63	1.1581	-3.2294	-1.2629
16.5048	72.7766	1031.43	-0.8784	-2.7662	-1.4945
14.1726	84.7366	1015.16	-0.5506	-2.4778	-1.7393
12.259	58.4246	984.786	-0.5244	-1.4945	-2.0233
46.1058	62.192	972.767	-0.0131	-0.9745	-2.3292
76.843	24.0994	867.758	-1.0925	-0.2622	-2.4996
58.3648	30.5578	1043.15	0.8041	-1.1581	-2.4472
100.942	-5.5016	962.481	-2.2112	-1.5557	-2.4559
59.6206	31.0362	973.066	-1.1624	-1.429	-2.504
55.614	10.8238	879.299	-2.6176	-1.7611	-2.421
57.3482	34.0262	899.093	-1.1493	-1.8398	-2.3379
72.7168	17.641	847.306	-0.8653	-1.3591	-2.3817
72.7168	9.7474	894.787	1.4203	-0.9002	-2.4079
108.657	-23.322	883.545	1.6693	-1.3765	-2.3598
94.5438	-1.5548	893.831	2.2462	-0.6118	-2.3423
93.5272	-33.9066	911.292	2.8798	-0.638	-2.2068
98.072	-11.2424	980.481	3.898	-1.0357	-2.0408
80.6702	-11.5414	965.83	3.343	-0.7647	-1.783
50.7702	-11.96	997.942	4.0073	-0.2666	-1.6475
70.4444	11.6012	1033.05	4.3307	-0.035	-1.6956
66.3182	5.8006	1025.39	3.8325	-0.0481	-1.6737
44.0726	-2.6312	1012.17	3.8281	0.0393	-1.7043
77.5606	23.9798	977.072	3.5528	0.3715	-1.7087
62.192	2.3322	949.624	3.4741	0.2972	-1.5251
44.7304	12.4982	1002.79	4.0291	-0.4326	-1.2673
50.1124	30.0196	971.391	3.1551	-0.5288	-1.193
8.5514	57.9462	990.467	4.1165	0.2447	-1.2061
11.2424	20.93	972.647	4.2214	0.7866	-1.3416
58.3648	35.8202	1049.25	5.2527	0.3889	-1.4814
34.983	-0.0598	967.803	4.2476	0.8085	-1.4071
4.186	-11.661	1046.2	5.1085	0.8172	-1.5164
106.683	14.5314	1030.71	2.7575	-2.2549	-1.4858
19.435	81.029	918.528	-0.0743	-4.3438	-1.2236
-44.85	62.3714	995.072	1.8223	-4.6235	-1.0532
-24.219	83.4808	958.893	0.9832	-3.059	-1.4028
58.8432	30.199	883.186	1.5076	-3.7757	-1.665
-13.2756	51.4878	1106.36	4.335	-3.9286	-1.6693
45.448	20.2124	975.996	1.6431	-3.0459	-1.8179
42.757	24.0994	1070	2.9672	-1.1712	-1.9621
22.126	-13.9932	1201.08	2.9148	-3.8674	-1.6387
13.0962	25.4748	1150.01	-0.437	-3.4698	-1.6344
43.5344	44.9696	998.481	-0.3846	-1.0095	-1.949
7.6544	33.1292	977.67	-0.6162	-1.2892	-1.7655
57.3482	-1.2558	998.241	-0.1966	-3.0808	-1.6125
35.6408	22.3054	952.734	-0.1661	-1.0706	-1.8704
58.604	5.2026	916.913	0.7473	-1.0182	-1.831
52.0858	-13.9334	871.824	0.2229	-1.2017	-1.7261
48.6772	27.0296	966.846	1.8791	-1.4552	-1.6606
27.0296	-12.259	949.504	1.0357	-1.1493	-1.5382
41.2022	13.455	984.129	2.2899	-0.6336	-1.4508
38.9896	0.3588	913.325	0.8565	-0.5725	-1.4858
51.3084	5.083	980.182	2.4559	-1.5907	-1.4639
15.1892	12.6178	993.338	1.9665	-1.2017	-1.5557
39.6474	13.2158	909.917	2.1588	-0.6249	-1.748
51.727	11.7208	913.624	2.858	-0.5812	-1.8398
33.5478	-8.1926	956.142	3.3518	-2.0583	-1.5732
25.8336	14.8902	938.322	3.1071	-1.1012	-1.7524
30.3186	11.9002	942.627	3.7757	-0.2491	-1.9009
38.3916	-25.3552	993.936	3.5659	-1.311	-1.9141
31.694	17.7606	1051.46	3.1901	-2.0626	-2.0277
-1.3156	31.2156	1027.66	2.1588	-1.4159	-2.1588
23.2024	21.7074	944.003	1.8267	0.8784	-2.2593
30.6774	-9.9268	1061.15	4.5273	2.7007	-2.15
26.7306	-81.3878	1036.09	3.9723	3.5572	-2.4428
120.019	-44.551	1030.29	2.6001	1.1668	-2.6307
76.544	20.631	915.418	-0.1617	-0.4195	-2.2855
23.5014	-23.4416	912.608	-0.0524	-0.2491	-2.0146
-8.1328	0.7774	1072.57	0.2272	-0.9483	-2.0845
58.1854	-17.5214	969.597	-2.3117	-3.2819	-1.9141
15.1892	73.1354	860.163	-3.2207	-4.8114	-1.6693
-22.0662	74.2118	673.587	-3.2207	-2.9541	-1.8966
36.3584	40.1856	850.775	1.193	-1.7043	-2.2287
50.83	-35.1624	1055.05	2.823	-3.933	-2.185
-29.5412	-48.8566	1152.53	1.949	-1.9184	-2.3817
96.6966	-20.5712	934.913	0.2666	-1.2192	-2.6307
79.534	-5.3222	993.457	-0.0787	-2.268	-2.5128
-14.4716	-2.9302	1103.13	-0.4588	-4.9425	-1.866
-56.1522	68.77	1130.88	-2.7312	-6.2447	-2.0539
25.415	70.265	880.615	-4.9643	-5.4887	-2.7924
-24.2788	23.4416	901.246	-3.0721	-5.2527	-3.0896
62.0126	13.9334	842.403	-2.5477	-6.0961	-3.1114
48.8566	-17.8802	865.665	-0.9614	-4.6235	-3.3125
57.4678	-40.1856	1011.1	1.4508	-4.4836	-3.3256
78.5772	-45.3882	1049.13	0.6074	-3.2119	-3.3649
77.142	-75.647	1033.05	-0.1486	-2.6526	-3.2513
75.348	-18.4782	1079.87	-0.4676	-2.3117	-3.3037
30.7372	-52.923	1079.75	-1.5907	-2.4166	-3.3824
35.88	-36.3584	996.268	-1.1012	-1.2673	-3.496
93.886	-28.3452	900.528	-1.6431	-0.3802	-3.5703
103.095	-69.4278	925.943	-0.2229	-1.9359	-3.4873
77.5008	-65.3614	852.21	0.1617	-1.0226	-3.4261
91.9724	-39.2288	882.229	2.6482	-0.7604	-3.5353
125.759	-90.6568	822.19	3.1071	-1.1974	-3.5004
106.444	-63.8066	845.393	4.96	-1.4071	-3.3693
83.72	-64.7036	921.996	6.3715	-2.2331	-3.0808
85.6934	-82.0456	977.79	7.193	-1.8004	-3.2513
122.231	-67.6338	989.75	7.9403	-2.0976	-3.2425
49.335	-52.624	1107.26	8.9061	-2.0714	-3.1071
61.0558	-68.8298	1029.04	7.5295	-1.8048	-3.3824
76.7234	-46.5244	1120.89	8.0889	-1.7261	-3.8019
102.916	-52.8632	1138.11	7.1406	-3.2731	-3.5615
36.5378	-35.88	1096.19	5.6242	-1.8747	-3.4436
72.956	-26.3718	1092.07	5.5499	-2.2156	-3.6446
58.604	-31.7538	1085.13	5.6067	-1.0226	-3.8106
36.2986	-43.1158	1170.76	5.9738	-1.0706	-3.9548
87.906	-30.0794	1033.34	3.7232	-0.354	-4.1602
56.511	-16.9832	1012.47	4.9468	1.9578	-4.3088
84.318	-76.4842	1126.03	5.3095	0.7647	-4.2739
78.2782	-66.0192	1084.35	2.4822	0.8041	-4.3831
64.4644	-28.5246	1016.42	1.6912	0.4151	-4.6715
27.9266	-2.093	983.232	0.3715	-0.5288	-4.7458
52.8632	-21.0496	954.109	0.1049	-0.6642	-5.1085
45.9264	-18.538	924.628	0.2272	0.6336	-5.6067
81.4476	-26.1924	935.81	0.9964	0.0524	-6.0088
78.2184	-80.3712	873.08	0.5331	0.1661	-6.52
68.2916	-51.2486	973.843	1.8704	0.9614	-6.9876
110.809	-66.8564	826.496	-0.3627	0.8784	-7.1012
78.4576	-83.122	928.156	1.0401	-0.3015	-7.2498
85.9924	-72.2982	992.74	1.4771	-0.2797	-7.7349
112.902	-87.4874	980.6	0.1092	0.3627	-7.9927
102.138	-82.225	915.179	0.1661	0.5856	-8.1763
127.673	-140.111	868.296	0.3846	0.118	-8.4734
180.656	-115.235	968.82	2.1544	-0.9832	-8.3729
143.52	-116.371	799.705	0.201	-0.5681	-8.0321
141.905	-132.935	810.469	1.7742	-1.075	-7.8747
134.012	-96.8162	939.338	3.7538	-1.5819	-7.8529
157.453	-121.155	961.046	2.9279	-2.386	-7.6999
105.786	-84.916	945.677	3.26	-1.7698	-7.5295
125.401	-110.929	941.85	3.5484	-0.7691	-7.4727
144.118	-98.4308	1005.24	4.9774	-0.2928	-7.3897
145.673	-129.108	1048.59	4.6103	-0.3583	-7.1144
118.344	-110.929	1094.52	4.2913	-0.0961	-6.9177
117.029	-87.308	1003.38	2.7444	1.0488	-6.9527
111.647	-76.9028	1021.68	3.1814	1.63	-6.8871
110.809	-85.5738	1003.92	2.7706	1.2192	-6.6555
88.504	-72.5972	1031.37	3.0372	1.8966	-6.7691
115.055	-77.3214	929.531	2.2637	2.1588	-6.9308
109.434	-64.4046	921.398	2.7881	2.421	-6.9789
102.437	-85.5738	987.238	3.2862	1.4465	-6.8347
111.826	-89.1618	886.535	1.7961	1.4639	-6.7866
86.2914	-45.8068	921.339	3.496	1.0313	-6.839
86.0522	-63.5674	847.785	2.421	0.2272	-6.7298
88.0256	-49.2154	932.82	4.9075	0.5637	-6.9133
103.095	-73.7932	948.308	4.5317	0.7385	-7.0182
91.1352	-84.7366	951.597	4.7983	0.5463	-7.0794
118.524	-92.5106	988.614	4.6628	-0.035	-7.0488
101.122	-63.089	1020.73	4.453	-0.1879	-6.9745
89.1618	-82.2848	923.79	2.5739	-0.2447	-6.8871
70.6836	-44.0726	1052.3	4.2389	-1.0881	-6.9527
97.0554	-62.9694	1024.25	2.4166	-1.4858	-7.1581
58.4246	-70.5042	1043.81	1.9097	-1.6868	-7.3285
72.4178	-46.7038	978.926	1.3197	-1.2673	-7.3766
100.643	-67.7534	997.165	1.9927	-1.2629	-7.5994
96.9358	-72.4178	975.517	1.0881	-1.4902	-7.7917
108.657	-67.6936	949.026	0.7079	-1.9534	-7.9971
56.5708	-75.1088	962.421	0.8303	-1.7655	-8.2943
85.1552	-90.0588	952.136	0.5594	-2.1413	-8.6613
91.4342	-77.2018	1000.99	1.3241	-2.3117	-9.0415
88.803	-89.1618	1050.27	1.5557	-2.4603	-9.3911
112.663	-106.922	975.816	0.153	-1.9097	-9.9068
112.783	-126.058	977.012	0.2403	-2.2593	-10.488
117.926	-90.3578	1029.46	0.9745	-2.8318	-10.9294
139.992	-144.477	906.568	-2.303	-3.6358	-11.209
128.989	-110.57	979.105	-0.472	-3.9024	-11.6985
138.915	-117.507	891.498	-2.3948	-4.1865	-12.1661
127.195	-138.078	988.135	-1.5514	-4.5841	-12.5506
147.287	-148.125	1011.58	-0.6031	-4.2214	-12.874
145.912	-148.603	1001.89	-0.6031	-2.6875	-13.2979
198.177	-198.955	959.312	0.0655	-1.783	-13.6344
202.602	-185.559	1003.09	1.0357	-1.1187	-13.8616
230.828	-214.443	993.577	0.4763	-1.0401	-13.8966
209.719	-220.243	915.538	-0.1442	-0.756	-13.831
214.622	-204.935	956.441	1.0401	-1.1362	-13.8223
211.871	-185.619	910.455	0.555	-1.3503	-13.7742
228.077	-201.705	955.365	1.4028	-1.3372	-13.901
220.841	-182.569	961.584	0.7735	-0.8303	-13.984
215.758	-212.29	941.611	0.5463	-1.0838	-13.8529
204.994	-186.277	959.132	1.9228	-0.5681	-13.7043
219.167	-193.752	914.282	2.1544	-0.2098	-13.5732
210.616	-170.609	884.263	3.8281	0.9395	-13.5688
244.223	-210.257	947.172	6.0044	1.276	-13.8092
229.094	-233.519	943.166	5.2571	1.2323	-13.866
236.27	-201.347	1035.56	5.9519	0.5025	-13.7349
212.649	-181.553	999.677	4.6715	0.6948	-13.5164
231.904	-179.878	880.077	3.3955	-0.1398	-13.5645
180.297	-125.161	884.263	4.2607	-1.0444	-13.6781
178.264	-118.823	1005.66	5.1566	-1.7786	-14.0015
183.048	-154.105	1057.02	4.9774	-0.7691	-14.4341
219.227	-185.44	1035.2	4.8725	-0.5594	-14.657
231.725	-182.569	1080.65	5.3795	0.035	-14.8711
241.293	-193.333	997.643	3.9592	-0.8303	-14.7094
242.25	-174.018	964.215	3.6795	-1.3897	-14.7138
221.738	-153.806	1035.08	4.453	-2.1937	-14.7182
227.838	-170.131	1007.57	2.6919	-2.8055	-14.7487
209.599	-127.613	1047.22	2.9061	-3.4436	-14.8318
212.649	-153.806	991.424	1.5688	-3.7451	-14.893
212.23	-124.444	1002.31	1.949	-3.4217	-14.9498
223.652	-145.314	965.232	1.547	-2.8886	-14.9585
231.067	-164.869	1013.25	2.1195	-3.2425	-14.9672
218.27	-157.633	1070.96	1.8398	-3.2731	-14.9279
230.469	-164.57	1099.54	0.9658	-2.705	-14.9104
229.213	-144.776	1053.86	0.2185	-1.984	-14.8711
235.672	-156.676	997.942	-0.2797	-1.6781	-14.8755
237.765	-154.463	1010.86	0.4982	-2.2374	-14.823
222.336	-161.4	970.076	-0.0044	-1.9228	-14.8187
245.957	-146.809	946.036	0.6031	-2.0146	-14.9104
231.725	-160.025	893.173	0.7167	-1.665	-14.9367
249.486	-146.749	918.169	1.9184	-1.9359	-14.8624
239.26	-152.43	924.568	2.102	-1.9272	-14.7968
256.841	-173.48	909.857	2.2724	-0.7429	-14.7094
255.346	-162.297	943.943	3.3387	-0.2229	-14.6351
277.053	-189.865	965.112	3.1551	-0.4108	-14.4997
264.436	-181.852	1054.87	3.4042	-0.4807	-14.5346
272.688	-182.689	1004.1	1.4945	-0.4326	-14.3948
244.821	-160.802	1052.36	1.8354	-0.3758	-14.2986
250.622	-167.5	1011.46	1.0095	-0.8434	-14.2986
232.323	-138.616	994.235	0.9308	-0.8827	-14.2637
239.08	-127.852	900.468	0.7167	-1.1362	-14.2549
243.685	-133.115	848.084	1.665	0.1398	-14.5259
242.908	-133.892	864.828	3.142	-0.6555	-14.6351
254.868	-161.221	889.405	3.5135	-1.6475	-14.6395
235.732	-137.42	957.637	4.2564	-1.1755	-14.6045
265.811	-143.042	941.312	3.378	-1.7961	-14.657
265.811	-144.955	996.507	3.7626	-1.6912	-14.7313
234.536	-134.49	1075.92	3.4523	-2.3248	-14.6919
220.782	-134.49	1101.7	1.8922	-2.3904	-14.705
223.712	-140.949	1078.61	1.4902	-1.4028	-14.9367
233.938	-128.63	986.64	-0.1573	-0.9133	-15.0066
256.123	-143.101	986.64	0.3933	-2.1544	-14.7881
261.266	-137.42	1052.72	-1.6387	-2.4603	-14.6526
246.735	-162.835	987.119	-1.2149	-2.469	-14.6613
229.572	-110.989	990.886	-1.9053	-2.8186	-14.5128
231.904	-127.135	929.232	-0.7079	-2.3467	-14.4341
218.868	-92.391	966.727	-1.0401	-1.713	-14.4865
241.173	-133.952	887.253	0.8565	-1.3023	-14.4822
243.027	-144.477	945.079	0.9308	-1.3197	-14.338
268.681	-145.135	932.282	0.6992	-1.228	-14.185
277.293	-165.467	925.644	1.1012	-1.9927	-13.8398
266.17	-144.357	968.76	-0.4151	-2.5958	-13.6213
269.1	-149.679	927.378	0.8653	-3.2207	-13.512
218.988	-124.025	1028.02	-0.3715	-3.0284	-13.3635
231.366	-118.882	976.175	-0.0524	-2.3904	-13.2935
230.11	-109.673	956.501	0.2884	-2.3991	-13.1755
240.516	-138.078	937.544	1.1843	-2.4559	-13.0401
246.137	-107.7	944.541	1.665	-2.9366	-12.673
241.293	-136.583	952.255	2.5302	-2.1326	-12.4895
250.801	-112.663	975.517	2.5302	-2.4079	-12.2491
263.539	-145.553	974.321	1.9665	-2.0539	-11.9476
227.001	-123.188	1000.87	1.7174	-2.1413	-11.6898
222.277	-110.331	992.979	1.4945	-2.1413	-11.4625
217.552	-129.407	979.823	1.4639	-1.4115	-11.3358
221.559	-106.265	993.637	2.0845	-0.5113	-11.1391
247.452	-116.012	972.587	1.11	-0.9352	-11.1391
203.918	-95.2614	1093.62	1.8485	-0.9264	-11.0037
206.011	-111.706	1048.35	-0.118	-0.7866	-10.9381
187.114	-68.8896	1034.9	0.3015	-0.1398	-10.8857
196.622	-68.2916	905.133	-0.756	-0.3671	-10.7196
192.317	-61.3548	866.382	0.2884	-0.2054	-10.6453
202.483	-75.5872	869.612	1.5382	0.2884	-10.6934
206.848	-76.4244	904.953	2.6788	0.8565	-10.6978
226.941	-99.9258	943.883	3.1377	1.1012	-10.5448
217.194	-99.7464	948.787	2.9629	1.9709	-10.3831
222.336	-126.896	917.691	2.1675	2.5215	-10.051
203.32	-74.0324	924.687	2.4166	1.8398	-9.8412
196.742	-87.4874	1008.71	2.3904	2.032	-9.7888
187.413	-88.205	1032.87	1.3591	2.7356	-9.732
181.852	-91.0754	939.099	0.2054	2.3642	-9.5747
172.403	-66.9162	938.74	0.9964	2.4953	-9.4479
214.144	-189.267	998.421	0.7691	1.6868	-9.0896
265.99	-9.0896	1017.8	-3.26	1.0401	-8.268
26.4316	-103.753	741.46	-10.5754	-2.6395	-7.3897
-40.066	-51.129	633.88	-4.9119	-4.1122	-6.7648
215.699	343.73	848.682	6.6643	-0.721	-6.9439
120.019	-99.4474	788.164	5.327	3.2032	-8.4778
174.975	-213.426	841.326	6.3103	1.8966	-8.6439
292.302	-52.6838	805.386	8.7837	0.437	-7.394
105.607	-43.355	1172.68	13.1275	-1.3634	-6.9527
117.328	-26.5512	1014.45	7.4771	-2.5827	-7.228
152.968	59.202	675.381	4.3744	-4.0991	-6.5768
2.9302	187.114	648.77	3.4348	-9.4348	-7.3634
-131.56	-62.7302	1490.69	14.4997	-9.9505	-9.2557
140.052	54.5974	1647.13	7.3416	-7.0182	-9.3911
-11.7208	200.091	945.259	-1.193	-4.1253	-8.1632
76.1254	-69.2484	851.313	-0.4108	-6.8478	-9.0284
98.2514	82.0456	1502.53	15.3387	-4.4967	-10.3307
396.833	-247.572	1344.84	0.9221	-2.9366	-9.6271
258.276	-228.615	1086.39	-3.3474	-3.5135	-8.6439
247.273	-108.477	1124.72	1.276	-3.4217	-7.5819
326.448	-205.413	1233.02	-1.9403	-5.3139	-6.2098
108.477	6.2192	956.142	-5.2396	-3.5659	-4.8507
256.721	-50.1722	814.895	-5.7203	-3.343	-4.5186
-57.1688	78.6968	1239.59	-0.4283	-3.0109	-4.4224
-42.9364	-23.2622	1061.93	-3.8893	0.6118	-4.3787
215.758	52.3848	795.101	-2.0277	8.8667	-4.772
116.909	-53.6406	751.985	3.3125	11.8209	-4.488
118.225	-125.341	842.104	7.2542	12.1355	-4.5011
288.415	-142.444	1040.94	7.2323	12.4676	-4.9206
284.349	-74.2118	867.578	1.6213	10.37	-4.3088
138.377	-9.269	772.257	-2.3423	4.4181	-3.1551
-23.7406	41.6806	873.439	-0.5288	2.4822	-2.775
9.0298	122.71	676.218	-6.2404	-2.4647	-2.8055
259.293	32.4714	307.91	-9.8019	-7.4596	-3.0852
-127.613	232.742	360.594	-1.3984	-5.8252	-2.622
-5.5016	197.101	525.403	3.2644	-7.394	-2.9192
134.43	24.9366	667.667	6.8959	-8.9498	-2.7269
-15.0696	28.4648	945.318	11.0343	-8.2549	-2.775
75.1686	35.9996	1366.25	11.3052	-8.1195	-3.0197
221.978	-40.365	986.58	5.2003	-6.1486	-2.858
41.9796	66.378	1543.56	8.9629	-7.8354	-2.1413
20.7506	-32.7704	1425.15	0.4195	-11.0561	-1.3066
47.541	153.985	1258.01	-1.5601	-6.437	-1.8048
-1.8538	100.165	1207.18	-2.0714	-3.6271	-2.2418
67.873	73.0158	1258.19	-3.3168	-8.0321	-1.8922
-3.1096	172.463	1286.12	-3.1202	-3.4173	-2.5652
65.9594	73.0158	1109.11	-4.2564	-0.5419	-3.0634
109.195	50.4712	1002.55	-4.2913	-0.3277	-2.8012
99.6268	57.2286	1041.18	-1.5994	0.9614	-2.5346
126.238	-19.3154	947.77	-2.5827	1.713	-2.386
128.57	17.7606	931.863	-1.3678	1.6606	-2.3467
139.035	13.0364	856.515	-2.5521	0.9876	-2.1107
98.5504	31.7538	829.067	-1.9971	0.2753	-1.9315
81.1486	40.5444	821.054	-2.0233	-0.6511	-1.8354
74.75	63.388	810.649	-1.0182	-1.0488	-1.8791
90.3578	63.687	810.23	-0.8434	-1.3503	-1.748
86.9492	62.2518	822.908	-0.1748	-2.1981	-1.6606
87.0688	69.7268	880.077	1.0794	-2.6439	-1.5863
76.1852	61.3548	932.342	1.5601	-2.622	-1.4246
84.916	40.3052	916.495	1.2717	-2.7225	-1.2673
77.5606	73.255	926.84	1.7917	-2.7837	-1.1231
63.0292	58.7834	932.641	1.6213	-3.3256	-1.0313
52.624	71.9394	955.783	1.8048	-3.3999	-0.8958
70.564	72.5374	966.787	1.11	-3.6795	-0.7866
55.9728	89.4608	1002.19	1.1712	-3.8849	-0.7735
40.9032	70.3846	1027.72	0.4151	-4.4443	-0.8609
58.3648	88.205	1063.18	-0.2098	-4.8201	-0.9527
51.9662	94.9026	1024.49	-1.6256	-4.807	-1.0313
44.6706	90.1784	1012.11	-1.2411	-4.7065	-0.9745
52.923	78.8762	996.926	-0.9439	-3.9199	-0.9614
73.1354	69.7268	1015.88	0.0218	-2.8274	-1.0575
80.3712	42.5178	954.109	-0.6074	-2.6045	-1.0138
63.8066	50.4712	1000.39	0.5506	-1.7305	-1.0444
95.5604	57.0492	951.239	0.8128	-1.0182	-1.0138
91.6734	29.4814	987.956	1.5033	-0.4807	-1.0138
105.368	46.7038	1021.2	1.2717	-0.4851	-1.0488
107.819	27.2688	1002.55	0.6031	-0.756	-1.0357
84.1386	18.6576	1033.76	0.1092	-1.0619	-1.0706
114.816	21.5878	1032.45	-3.0328	-3.0721	-0.8085
63.8066	107.58	927.378	-5.1872	-4.9381	-0.3277
0.7774	113.74	844.017	-5.2877	-3.9985	-0.2753
28.2854	104.172	917.153	-2.2025	-2.5215	-0.5331
81.3878	85.9924	890.9	-1.3591	-0.9789	-0.6468
80.9094	31.694	892.754	0.2447	1.3241	-0.7385
77.6802	44.3716	965.531	2.2506	2.6963	-0.8303
138.377	-4.3056	895.505	3.2862	6.4195	-0.9789
96.0986	-24.518	1050.63	4.5535	6.1442	-0.7604
96.6368	-0.4186	954.886	0.7298	4.2214	-0.7298
73.7334	93.886	819.32	-0.2578	4.1471	-0.9133
14.2324	97.7132	921.697	1.0051	3.7713	-1.1799
77.6204	55.5542	819.918	-0.7647	1.8135	-1.3372
77.3812	73.1354	777.34	0.0481	2.2068	-1.5514
46.7636	49.7536	710.125	1.5164	1.1493	-1.5776
173.54	1.9136	603.382	2.622	0.7604	-1.6256
87.5472	45.9862	888.748	7.6825	1.5819	-1.276
183.287	-63.8664	807.539	6.1399	-1.7349	-0.4326
55.8532	39.3484	964.155	8.3904	0.5987	-0.3627
78.0988	16.9832	992.022	8.5434	0.8958	-0.4414
88.6236	37.9132	1052.18	7.9665	-0.2272	-0.2272
48.0792	52.325	1104.51	7.8398	-0.6118	-0.1136
68.6504	58.6638	1093.92	6.2491	-1.3809	-0.2491
28.106	99.6268	1140.39	6.0131	-2.032	-0.1748
26.4316	85.3346	1063.06	3.3693	-2.8318	-0.1661
18.837	97.175	1080.77	3.9548	-3.2032	-0.4239
15.249	124.444	1088	3.7669	-4.0379	-0.6249
35.1026	111.587	1012.53	2.5259	-4.405	-0.5987
26.4914	109.374	1046.62	3.5834	-3.4916	-0.7167
30.9166	81.926	1100.86	3.3387	-3.85	-0.791
32.591	81.6868	1243.96	3.6533	-4.3656	-0.8259
24.7572	75.2882	1083.04	0.6992	-4.1865	-0.9832
22.1858	109.195	1086.33	0.992	-3.6184	-1.1143
62.9694	72.8364	1103.19	0.4807	-4.772	-1.0488
15.4882	93.2282	1185.18	0.3889	-4.0248	-1.1799
50.4712	65.9594	1001.41	-1.9752	-4.0641	-1.1974
48.7968	63.5674	961.046	-1.1493	-3.0765	-1.3634
83.8396	43.1158	932.342	-1.3853	-3.7451	-1.2629
90.3578	47.1822	957.996	-1.3372	-3.9461	-1.075
56.5708	55.614	1021.09	-0.6293	-3.2382	-0.9527
93.7066	28.2256	950.342	-1.7305	-2.7837	-0.8871
61.4146	55.0758	1026.71	-0.4763	-1.8791	-0.8303
84.2582	13.2158	931.265	-2.3467	-1.9315	-0.7036
53.2818	42.9962	950.162	-0.3846	-0.9264	-0.7254
78.6968	-13.3354	951.657	-1.1799	-1.6125	-0.8128
100.165	71.2218	908.601	-2.3117	-3.7932	-0.638
40.0062	132.278	760.596	-2.7968	-4.1078	-0.2403
-5.2026	57.9462	831.16	1.5426	0.7735	-0.6686
79.6536	-17.4616	968.521	4.0073	1.5164	-1.075
162.477	4.485	849.459	1.8179	-0.3059	-1.2236
62.3116	52.1456	889.047	3.8063	-1.0838	-0.9614
106.803	-1.2558	972.169	4.3962	1.9578	-1.1143
97.5338	-13.9334	1116.71	2.4778	1.5514	-0.8216
24.9964	-16.0264	1174.17	-0.2972	-3.1726	-0.4108
60.5176	73.7932	740.743	-2.1413	-1.6387	-0.7036
97.6534	5.1428	768.789	2.8755	2.9803	-1.1755
134.251	-57.3482	948.009	4.0335	-1.1362	-0.6162
186.397	-12.4384	1123.88	0.7473	-5.8864	0.1923
-14.4716	116.969	847.246	1.6125	-3.0109	0.2141
5.2026	76.6038	848.562	3.26	-0.4239	-0.118
115.474	57.2286	726.63	1.9053	-5.9388	0.4195
10.764	113.62	1134.88	6.7298	-7.1537	0.0087
-81.8662	111.886	1461.27	8.7924	-4.7327	-0.3409
224.37	-35.4614	774.709	-0.5331	-1.4727	-0.8434
-69.8464	124.085	1272.9	6.909	-3.5047	0.035
53.8798	-25.116	1272.6	2.0714	-7.6912	-0.1792
-5.083	152.909	1182.72	2.6526	0.8041	-1.0488
76.9626	29.6608	979.404	-1.3503	-0.791	-0.8827
76.4842	70.0856	1098.47	0.874	-4.1165	-0.4414
15.9068	98.3112	1209.22	1.9534	0.3365	-0.909
76.7832	29.302	965.83	-2.3991	1.8441	-1.1886
58.7834	40.1258	933.777	-1.0794	-0.2753	-0.9395
43.5344	47.0028	929.77	-0.0743	-0.2797	-1.0095
129.347	42.757	879.897	-0.6336	-0.7822	-0.9614
56.4512	54.8366	842.702	-0.4064	-0.7385	-0.6948
67.9328	48.0194	895.326	0.721	-1.6169	-0.6817
85.6934	48.8566	866.024	0.6555	-1.8747	-0.7123
55.614	28.2854	815.194	0.7866	-1.4683	-0.7079
57.7668	57.0492	845.034	2.0452	-2.8667	-0.6686
79.3546	24.2788	956.74	2.7444	-2.5433	-0.8128
47.6606	46.5244	1118.32	4.0641	-1.8572	-0.7254
103.574	8.073	1013.25	1.1843	-1.6169	-0.6774
56.8698	24.6376	952.076	1.6519	-0.1966	-0.7254
73.1952	26.7306	958.953	1.3241	-1.831	-0.5812
56.7502	30.7372	978.388	1.3328	-1.6693	-0.6074
59.0226	52.624	980.78	1.5514	-0.7516	-0.7385
77.5008	45.3284	957.817	1.5164	-1.1406	-0.7036
57.3482	32.591	984.667	2.2462	-0.9002	-0.7342
67.6338	24.0994	951.059	1.7261	-0.7385	-0.756
73.1354	29.4814	968.82	2.5783	-0.7254	-0.7254
73.4344	28.5246	908.84	2.0845	-0.5856	-0.6511
70.3248	27.0296	985.982	3.4916	-1.4421	-0.7167
57.1688	22.9632	991.424	2.7444	-1.4115	-0.7036
65.3614	27.5678	995.73	2.1631	-1.9403	-0.5594
53.1622	31.096	1026.29	2.3161	-2.3511	-0.4414
54.2386	48.1988	1014.27	2.032	-2.3773	-0.472
48.6174	31.8734	990.408	1.7305	-2.3642	-0.4588
45.747	55.1954	984.009	2.2462	-2.102	-0.5375
49.6938	25.5346	988.434	1.9796	-2.0976	-0.5856
39.7072	43.654	1021.8	2.7706	-1.9228	-0.6293
57.0492	31.0362	976.175	1.9228	-1.9053	-0.6162
52.6838	35.7604	1043.15	2.9061	-2.2506	-0.6249
41.1424	37.8534	1044.29	2.0189	-2.0102	-0.6118
47.4214	30.3784	1045.12	1.8966	-1.5557	-0.7123
55.8532	26.91	979.584	1.3023	-1.4683	-0.7953
48.0194	21.8868	977.012	1.5076	-1.6519	-0.8041
53.82	23.322	991.305	1.7349	-1.3372	-0.8172
53.7602	13.8736	971.63	1.1537	-1.3328	-0.8347
60.5176	1.5548	1003.92	1.6213	-1.3897	-0.7953
60.7568	27.3884	1009.6	1.3765	-1.3809	-0.6992
52.1456	1.3754	940.654	0.437	-1.2629	-0.6118
47.1822	29.302	986.58	1.8616	-1.2105	-0.6336
56.0924	-1.794	947.71	0.6599	-1.4989	-0.5375
41.6806	25.415	968.939	1.4246	-1.4727	-0.5288
48.1988	14.651	936.408	0.8784	-1.6956	-0.5288
44.1324	18.4782	956.68	1.1668	-2.15	-0.4239
34.0262	31.2754	984.607	1.3591	-2.0932	-0.4588
26.611	20.3918	974.082	1.3503	-2.0889	-0.4326
42.9962	22.9632	964.993	1.6387	-1.7611	-0.6249
24.3984	22.6044	994.295	2.3685	-1.5601	-0.8041
36.6574	14.1128	964.275	1.9009	-1.6562	-0.8172
43.4746	16.6842	983.411	2.5128	-1.7961	-0.9264
35.4016	6.4584	982.215	2.3642	-1.6125	-1.0095
44.9696	2.9302	984.248	1.9141	-1.9403	-0.9789
46.1058	11.5414	1000.04	2.1457	-2.1588	-0.9439
40.2454	-6.2192	995.79	2.303	-2.1063	-1.0051
44.6706	-12.9766	1022.88	2.8186	-2.3773	-0.9483
53.6406	-5.7408	1000.63	2.1894	-1.9184	-0.9221
47.7802	-6.4584	1020.43	2.3554	-1.7961	-0.9002
49.8134	-18.239	985.863	2.1806	-1.193	-0.9221
53.1622	-3.887	965.591	2.8318	-1.1843	-0.839
45.448	-31.0362	979.644	3.0197	-1.3591	-0.8565
55.3748	-12.6178	1030.47	3.3649	-1.2892	-0.9876
40.8434	-4.485	1053.02	2.3074	-1.3634	-1.0794
27.3884	-7.9534	1042.19	1.8747	-1.346	-1.3503
36.0594	1.794	988.255	1.7174	-1.2323	-1.5514
35.0428	-22.9632	899.631	1.6519	-1.4596	-1.7524
38.7504	-13.9932	968.042	3.0852	-1.8267	-1.9228
60.6372	-21.7074	1010.2	2.2462	-2.1763	-2.0714
39.8268	-11.1228	981.258	1.5601	-2.032	-2.2331
50.0526	-27.3286	1008.23	2.0845	-2.6526	-2.3773
34.1458	1.0166	1009.9	1.7611	-2.0583	-2.421
46.046	-48.1988	955.843	1.0095	-1.8441	-2.4996
57.707	-16.744	1080.89	2.7706	-1.5382	-2.4647
70.9826	-45.6274	1040.16	1.2149	-1.3897	-2.3423
63.986	-41.6208	1018.39	1.429	-0.9483	-2.2549
70.265	-37.0162	930.01	0.083	-1.4596	-2.1063
31.694	-33.9066	983.112	0.9614	-2.0495	-1.9796
48.737	-17.641	964.335	0.9133	-1.6825	-1.8048
49.7536	-28.405	927.797	0.7866	-1.5645	-1.6431
50.1722	-35.3418	942.269	1.6387	-1.7742	-1.4989
53.1622	-35.0428	964.215	1.8223	-2.0058	-1.3634
42.3384	-32.7704	991.783	2.2418	-2.0015	-1.2848
40.963	-35.4614	951.179	1.9184	-1.8441	-1.1974
29.003	-16.6842	990.288	2.6832	-2.2068	-1.1318
33.9066	-36.3584	997.225	2.5608	-2.2593	-1.1362
25.714	-14.4118	1026.71	2.9541	-1.3547	-1.1712
39.767	-41.8002	955.783	1.4771	-1.4858	-1.1318
30.4382	-13.0364	1019.05	2.8274	-1.7917	-1.1275
18.1792	-28.6442	1014.09	2.0364	-1.3372	-1.2061
28.7638	-19.9732	996.926	2.3948	-1.0095	-1.3023
18.7174	-28.106	1026.77	2.6963	-0.6249	-1.3154
30.797	-34.3252	1062.77	2.941	0.1442	-1.3372
24.817	-37.674	963.019	2.4079	1.2848	-1.3634
50.531	-48.7968	901.485	2.4559	1.2411	-1.3285
54.119	-44.4314	974.202	3.697	0.4982	-1.311
41.3218	-46.2852	968.162	2.3598	0.2928	-1.346
33.0096	-30.2588	939.996	0.9745	-0.4763	-1.2323
0.7774	-11.8404	999.437	1.4945	-0.9046	-1.1275
0.8372	-22.6642	946.335	1.2105	-0.791	-1.0401
14.352	-6.7574	922.116	2.4909	-0.4851	-0.9876
22.0064	-28.1658	869.492	2.9323	0.1966	-1.0969
25.8336	-25.7738	984.428	5.3095	-0.1442	-1.1449
36.6574	-50.531	964.096	5.2047	0.0306	-1.1318
39.4082	-42.9364	896.701	5.2964	-0.555	-0.9789
23.023	-33.3684	911.412	5.7378	-1.6431	-0.9002
-2.392	-23.9798	1026.95	7.0575	-1.8485	-0.9527
17.8204	-31.8136	1086.63	5.9956	-2.9279	-1.0051
31.5744	2.6312	1083.34	4.3656	-4.7458	-0.9483
-17.4616	-17.043	1067.79	3.3212	-4.2564	-0.7604
-41.0826	11.1228	1090.51	3.9636	-4.0903	-0.909
15.249	0.7774	1024.61	3.094	-3.5878	-1.1362
19.0164	-5.5016	1171.78	5.8514	-2.0539	-1.2323
31.8136	-69.966	1126.39	2.8012	-1.027	-1.1712
41.9198	-33.9664	1142.9	1.8354	-0.7254	-0.9527
-5.8006	-32.8302	1162.93	-0.0918	-1.2717	-0.6555
-44.252	46.5842	1066.35	-0.6948	-0.5375	-0.7473
-20.6908	-6.1594	941.79	-2.2506	1.4596	-1.276
-15.7274	35.1026	1070.78	0.839	0.4894	-1.2804
42.6374	-81.5074	866.681	-3.0109	0.9439	-1.3853
-23.6808	19.0164	949.385	2.102	2.3904	-1.4071
60.0392	-62.0126	692.364	-1.6519	0.6555	-1.1843
15.847	-8.6112	838.097	3.3387	-0.52	-1.2105
22.0662	-33.1292	771.898	1.8092	-0.9614	-1.3328
30.199	-23.5014	884.263	3.9286	-2.0233	-1.2586
29.1824	-50.8898	870.09	3.4785	-2.5302	-1.1362
43.5344	-37.6142	966.428	4.405	-3.0546	-1.1406
5.8604	-38.9298	997.464	3.531	-3.1814	-1.0619
15.249	-31.7538	1005.78	2.8055	-3.142	-1.0575
0.4186	-18.1792	1102.47	3.3474	-2.7662	-1.0313
17.8802	-35.2222	1073.11	1.6868	-2.5696	-0.9264
0.897	-30.3784	1086.21	1.7436	-1.5295	-1.0138
8.8504	-24.817	1031.37	1.0488	-0.6992	-1.0706
26.013	-34.086	1018.69	1.1406	-0.4501	-0.9614
4.4252	-47.0028	1011.52	1.2804	-0.3409	-0.8871
29.3618	-14.053	954.587	0.673	-0.4763	-0.7254
10.3454	7.774	887.073	0.472	-1.1668	-0.7342
-59.9794	-13.0962	940.295	2.3205	1.1231	-1.0401
17.4018	-33.0694	940.774	2.8755	2.0976	-1.4989
58.4844	-37.4946	932.342	3.0066	1.394	-1.5426
44.252	-59.3216	924.269	2.5302	0.4763	-1.276
-36.1192	-38.9298	1042.31	3.0634	0.3234	-0.992
33.787	-46.046	993.218	0.673	-0.5768	-0.9483
-32.6508	19.1958	1023.9	0.5331	-1.9272	-0.7647
30.2588	-38.87	953.93	-0.5768	-2.3205	-0.7735
17.8802	-39.1092	794.383	-0.4151	0.0218	-0.8915
54.5974	-47.3616	882.588	2.0801	-2.6307	-0.3496
34.086	-45.0294	895.385	2.7531	-3.6839	0.2491
-57.5276	3.9468	971.87	4.0685	-1.713	0.0743
5.1428	12.1992	950.88	4.6103	-1.9359	-0.0918
-39.8268	20.8104	1076.7	6.0961	-2.9978	-0.153
-59.1422	1.6744	1077.06	5.2833	-2.4909	-0.5463
-15.1892	5.681	1003.26	4.8682	-0.9701	-0.9439
4.0066	-31.8136	1043.39	5.0736	-3.378	-0.8609
1.7342	-22.7838	1070.48	4.724	-3.1508	-0.9046
-3.2292	-31.1558	1056.43	3.6271	-2.7968	-0.9876
-4.6046	-36.6574	1062.83	3.094	-3.4392	-0.9439
-13.2756	-26.7904	1112.04	3.6926	-2.6045	-0.8784
2.6312	-46.7636	1105.82	2.2855	-2.2811	-0.7516
4.6046	-35.2222	1051.94	1.6825	-1.3897	-0.6774
-10.8238	-35.1026	1037.17	2.0102	-1.1275	-0.5987
1.2558	-28.405	1044.59	1.7524	-0.9177	-0.5812
13.8138	-33.6674	997.883	1.0532	-0.4676	-0.5419
-11.96	-11.96	977.192	0.7691	-0.3889	-0.4283
-4.7242	-17.8204	942.568	0.4239	-0.9308	-0.3627
-13.754	0.0598	979.404	1.5819	-0.284	-0.3715
-11.5414	-27.508	903.997	0.3933	-0.5768	-0.3889
-16.6842	-19.9732	930.428	1.5076	-1.1231	-0.5025
-14.5314	-14.7706	952.076	1.4814	-1.0313	-0.6074
-12.7972	-23.8602	928.395	1.3066	-1.5557	-0.5943
-13.8736	-13.6942	960.029	1.9097	-1.9315	-0.6118
-13.8736	-17.1626	945.797	1.5208	-2.3074	-0.6555
-15.6078	-22.9632	920.023	1.4028	-2.9104	-0.6468
-16.8038	-22.9632	963.139	2.3948	-2.9803	-0.7079
-26.7306	-10.8238	977.252	2.4603	-3.0066	-0.7866
-15.4882	-24.3386	1013.07	2.9497	-3.1202	-0.9133
-10.465	-40.664	987.119	2.6439	-2.8929	-1.0095
-11.7806	-33.4282	987.119	3.2425	-3.1114	-1.1231
-0.4186	-37.7338	1034	3.0066	-3.059	-1.2061
2.392	-49.8134	1057.68	1.9709	-3.2425	-1.2411
6.8172	-49.9928	1046.86	1.3678	-3.5397	-1.3066
-6.3986	-54.0592	1038.13	1.3372	-3.5266	-1.394
-2.7508	-29.4216	1025.75	1.3678	-3.6883	-1.4771
-7.7142	-41.262	1053.26	1.2411	-3.1508	-1.6213
-9.9866	-38.9298	1008.65	1.3547	-2.5215	-1.748
7.9534	-50.3516	983.112	2.5521	-2.2724	-1.8267
13.2158	-54.2386	1035.74	2.0146	-2.0277	-1.7611
22.0662	-59.6206	1030.41	1.4945	-1.8616	-1.6956
29.4814	-73.3148	987.956	1.1668	-1.7524	-1.6082
18.239	-69.8464	982.036	0.7473	-2.0495	-1.547
16.0862	-56.4512	1031.85	-0.3015	-2.0452	-1.4203
7.2358	-57.7668	1020.55	-0.4283	-1.5208	-1.429
0.7176	-34.7438	992.62	-0.7254	-1.7305	-1.429
-14.352	-42.6972	958.594	0.6249	-0.5681	-1.4203
-7.7142	-34.9232	961.644	1.4115	0.7429	-1.4989
-1.8538	-58.0658	955.963	1.4115	0.1005	-1.6344
31.096	-95.6202	911.472	1.6912	0.1835	-1.665
23.5014	-56.81	897.239	2.5521	-1.0313	-1.6256
49.5742	-61.1156	941.192	3.3387	-1.0313	-1.4945
26.1326	-80.0124	886.954	1.2979	-1.5382	-1.2979
0.4186	-37.8534	949.385	0.5725	-2.8842	-1.0706
-10.0464	2.1528	933.598	0.0175	-4.016	-1.0706
-11.7208	-28.405	994.175	0.9614	-3.1639	-1.2892
-24.1592	-31.5146	1004.04	0.354	-2.0845	-1.4552
7.2956	-69.667	1007.03	-0.4501	-1.984	-1.4771
15.0098	-67.0956	1040.88	-0.2622	-0.6555	-1.4771
7.0564	-87.607	1114.79	0.6555	0.1661	-1.346
40.4248	-55.0758	1017.32	-0.5768	0.791	-0.9876
15.249	-42.6374	829.546	-1.3285	1.4421	-0.9439
-44.9098	-23.9798	1017.2	1.2454	-0.2098	-1.1581
14.1726	-85.215	861.359	-1.7349	1.4552	-1.394
-22.8436	26.7904	928.634	1.7917	1.228	-1.2367
89.5206	-117.387	728.304	-1.6082	-1.0881	-1.3285
-30.8568	-9.3288	865.127	2.8055	-0.4326	-1.4377
19.2556	-79.3546	799.287	0.5943	-1.9621	-1.3066
-8.1926	-47.0028	926.302	3.3562	-1.9009	-1.429
19.1958	-100.703	1018.63	4.4574	-1.665	-1.4989
31.7538	-47.84	1055.71	4.1034	-1.5295	-1.2848
33.0096	-93.3478	817.287	1.7611	-1.6475	-1.0706
-3.7674	-45.9862	973.066	5.48	-1.9709	-1.2061
15.6078	-54.5376	1027.3	5.5062	-2.8099	-1.0401
20.3918	-72.2982	999.437	4.3045	-2.6264	-0.9832
9.568	-50.3516	1043.51	5.9869	-2.4341	-1.0925
28.0462	-78.039	1036.21	5.2134	-2.1981	-0.9264
18.0596	-58.305	1104.57	5.6941	-2.4909	-0.7953
7.2956	-70.7434	1054.63	3.9024	-2.2418	-0.6861
-2.093	-49.3948	1083.46	4.2345	-2.3642	-0.5899
-19.435	-41.262	1102.47	3.142	-2.4341	-0.6468
-9.6876	-24.6376	1099.9	2.4079	-2.8755	-0.6774
-20.6908	-27.807	1067.37	2.0932	-2.976	-0.6424
-49.1556	-22.425	1085.43	2.2418	-2.5259	-0.6861
-23.8004	-32.5312	986.64	1.3678	-2.2855	-0.7779
-1.196	4.3056	1020.49	3.3824	-2.1631	-0.874
-20.2722	-46.4048	965.471	2.5128	-1.7917	-0.8609
-12.9168	-48.1988	933.837	3.3387	-1.4203	-0.9658
28.2256	-26.7904	961.644	4.3219	-1.3634	-1.1231
-20.7506	-78.8762	1022.04	3.4916	-1.8529	-1.0969
4.485	-58.8432	1097.57	1.9272	-2.9061	-1.0313
5.2624	24.1592	1036.45	1.1012	-2.5215	-0.9658
-61.4744	-49.7536	1027.3	0.0961	-0.8521	-1.11
-26.2522	-51.4878	1073.77	0.5594	-1.0488	-1.1843
-2.093	-20.8104	1001.77	-0.4457	1.6693	-1.3722
13.2158	-75.1088	924.149	-0.472	1.8048	-1.4552
9.1494	-102.916	957.697	0.52	2.4428	-1.3897
33.0096	-49.4546	993.039	1.4115	3.4698	-1.2105
5.9202	-90.1784	752.284	-0.7866	4.4924	-1.0182
-67.4544	-81.2682	972.767	4.2564	5.5674	-1.0925
91.9724	-105.726	869.313	1.8048	4.9075	-1.2848
-17.9998	-50.4114	825.3	2.7444	5.965	-1.2061
35.7604	-129.826	786.37	1.6344	2.2506	-0.9439
-48.9762	-29.1824	840.668	3.9243	3.1988	-0.9395
-16.146	-102.497	848.442	3.0634	0.9527	-1.0925
11.9002	-70.3846	842.343	2.9629	-1.2105	-1.2236
-18.4184	5.0232	931.684	3.7582	-4.3525	-0.839
-31.4548	-59.2618	750.789	2.0932	-4.2607	-0.6293
-117.268	-15.7274	888.927	7.5426	-1.7349	-0.7254
15.3686	-80.431	915.418	7.2367	-4.9818	-0.7735
7.3554	-49.0958	1049.55	9.3431	-4.6235	-0.9439
-46.4048	-76.6038	1104.21	8.3248	-4.7196	-0.8653
-72.7168	-71.9394	1131	7.0794	-4.8201	-0.874
-21.1692	-68.0524	1228.11	6.6162	-5.3969	-0.7866
-87.7864	-64.0458	1325.59	5.327	-5.4712	-0.5637
-106.384	-10.7042	1355.31	3.5965	-4.7283	-0.6249
-63.2684	-33.0096	1076.94	0.2141	-1.8616	-1.2192
-88.3844	-24.3984	1151.09	2.9192	-0.992	-1.4115
-26.91	-106.025	1104.69	0.957	-1.5251	-1.2629
-46.5842	-66.079	1111.92	2.3292	0.6249	-1.3241
-23.7406	-86.3512	1005	0.721	1.547	-1.4203
-19.2556	-80.5506	975.338	1.5295	1.2149	-1.1624
-50.531	-80.132	963.797	1.63	1.2717	-0.9483
-33.6674	-80.0124	940.295	2.0976	1.6387	-0.8958
-34.3252	-80.6104	882.469	2.0408	2.032	-0.8128
-20.9898	-73.255	885.339	2.4647	1.2105	-0.6205
-33.0694	-79.1154	872.183	2.7007	0.9352	-0.4545
-27.2688	-63.687	880.974	3.5047	0.8478	-0.319
-56.0924	-68.4112	890.123	3.9286	1.0357	-0.1092
-35.7006	-75.348	890.183	4.1602	0.4457	0.1573
-50.6506	-54.4778	970.494	4.9862	0.354	0.3889
-48.139	-54.7768	971.092	4.3132	0.0262	0.6774
-75.1686	-43.1158	958.116	3.6358	0.4457	0.8871
-88.6834	-23.0828	971.451	4.0423	0.7298	0.9964
-82.0456	-34.7438	977.072	4.4093	1.1449	1.0532
-68.471	-31.2156	985.564	4.1734	1.3547	0.9964
-75.8264	-43.5942	980.301	3.614	1.3984	0.9308
-86.6502	-13.8138	987.717	3.7932	1.7393	0.9745
-74.9294	-40.7238	964.813	2.9541	1.8572	0.9789
-95.2614	-30.797	1037.77	3.7975	1.311	0.992
-110.869	-24.7572	985.384	2.1937	1.1668	0.9745
-95.082	-10.2856	940.833	1.9796	0.6599	0.9177
-104.291	-4.4252	907.585	1.9534	0.0262	0.7604
-88.0256	-20.93	951.358	2.2374	-1.6082	0.7298
-111.587	-14.1726	950.461	1.8966	-1.9053	0.8653
-92.9292	-3.2292	920.023	1.3634	-2.8711	0.9964
-78.039	0.897	909.379	1.4639	-3.531	1.0488
-90.298	14.7706	913.146	2.3161	-3.5266	1.1275
-143.221	-60.5176	927.378	3.3955	-2.6613	1.2717
-48.2586	-17.9998	1039.03	4.0903	-3.5965	1.1362
17.8802	33.6076	926.063	1.9752	-5.4494	1.3678
-118.643	-2.9302	1069.88	4.9643	-2.2549	1.9359
-175.932	-38.9896	1162.51	5.362	0.284	2.0452
-2.9302	-29.5412	1029.64	3.7407	0.4676	1.6868
80.6702	20.2124	1082.74	3.5703	-1.6475	1.6082
-112.544	3.1694	1029.7	1.9097	-0.7647	2.3336
-173.001	-25.116	1017.08	2.1457	2.1981	2.2899
-31.6342	38.2122	979.105	1.8135	1.7655	1.5994
39.3484	-12.857	985.325	0.6031	0.555	2.0146
-226.403	-23.9798	1301.79	1.6169	-1.7349	2.9017
-62.192	-79.833	954.169	-7.6213	-4.89	2.6395
-58.1854	46.943	801.739	-7.1799	-3.7495	2.2287
-74.0922	105.547	755.394	-6.1879	-9.6839	3.2076
-181.672	126.298	1089.32	-3.2163	-10.8769	4.0859
-269.997	19.136	845.273	-4.5186	-4.8245	4.1602
-19.9732	119.241	678.551	1.429	-0.0044	3.461
26.4914	73.1354	662.345	7.9184	-0.3671	3.1857
-16.0862	-181.015	1030.95	12.6992	2.185	3.1114
-51.0094	-103.813	998.182	8.2462	4.2695	3.2382
11.96	41.262	867.638	7.3853	2.3817	3.8325
-23.023	1.6146	1141.46	8.775	-1.866	4.1777
-267.186	-54.7768	1473.71	5.8165	-0.0787	4.5055
-159.307	35.1624	1422.1	0.1092	0.5025	4.1209
-96.1584	259.652	789.958	-3.7014	2.9978	3.4567
-135.208	31.2156	676.577	0.3365	3.6795	2.8842
-260.25	9.9866	1214.96	7.1668	3.0546	2.3642
139.753	-58.006	1028.8	2.3904	4.1209	2.2986
24.9964	-40.2454	610.737	0.9439	8.5434	2.941
-73.9726	-80.3712	805.626	5.9738	1.1493	4.7546
-23.3818	-7.3554	915.538	6.4763	-1.547	5.2921
-138.437	108.417	1083.4	9.8325	4.4312	4.89
-105.248	-63.5674	521.396	-0.638	2.2506	5.0386
-79.0556	-36.9564	859.087	7.4115	-4.1209	5.4144
-164.45	243.685	1247.67	9.4829	-5.0211	5.2746
-133.474	53.5808	877.146	2.6788	-2.3248	5.1347
-219.825	62.0724	854.183	5.4275	-0.638	5.1697
-123.009	73.9726	1034	8.6919	-1.5907	4.9294
-117.686	97.1152	1238.88	9.2163	-0.6992	4.3962
-106.863	23.322	1114.55	2.303	-2.5827	4.1996
-184.961	81.926	1351.42	4.0554	-1.783	4.2913
-167.978	7.475	1127.71	-0.8347	0.3933	4.3918
-269.04	86.411	1103.07	-0.8784	0.4588	4.2782
-21.827	90.8362	965.351	-5.7422	-5.2571	3.5047
-182.569	131.261	1235.23	-3.1071	-5.6897	3.8543
-272.09	51.7868	1087.76	-8.1719	-5.2746	4.1471
-169.413	117.507	849.698	-9.1464	-3.0459	3.7189
-75.4676	98.3112	825.001	-6.3278	-3.9723	3.9068
-109.912	46.4646	873.798	-3.7538	-1.9446	4.2127
-164.809	-13.9932	949.684	-1.2673	1.3416	4.2607
-50.232	-47.3616	731.533	-3.898	-0.4588	3.9636
-3.5282	-4.2458	790.975	-1.4945	-0.4851	4.1602
-51.6672	-8.1328	789.001	-0.7691	-0.6861	4.9556
-244.582	-41.7404	1119.64	0.3758	-2.5914	5.5936
-94.185	-82.823	1117.54	-4.1209	-5.327	5.4144
45.3284	22.9632	801.38	-6.153	-4.2957	5.1042
-134.311	88.5638	1005	-4.9425	-6.59	6.1399
-201.167	9.1494	813.639	-7.8704	-8.3117	6.7516
-229.632	169.712	839.891	-3.5091	-4.4312	6.0131
-94.7232	49.3948	633.461	-2.9978	-3.1639	5.716
-74.3912	52.5044	818.662	2.2025	-3.7232	6.1879
-87.8462	7.5946	1009.3	3.8587	-1.5557	6.5069
-172.045	13.3354	886.894	4.4574	4.5317	6.1792
-58.7236	-88.6834	1060.43	6.8303	6.8609	5.8864
105.547	-188.25	1112.88	2.6526	3.3168	6.153
-127.314	6.578	1210.83	-2.3511	0.3103	7.4115
-232.801	90.1186	1068.57	-5.6854	-0.1923	8.5215
-315.804	177.965	952.195	-2.7837	4.0554	8.3948
-207.685	110.092	1036.75	-2.4603	4.0029	7.11
-154.224	-2.4518	908.302	-4.4924	1.7174	6.9789
-253.313	40.8434	938.501	-1.228	2.6264	7.1668
-100.703	78.039	984.009	-1.2105	0.2709	6.9527
-27.4482	67.275	745.407	-4.1821	-5.7028	7.1275
-14.1128	-51.727	546.751	-4.1122	-6.6293	8.3991
-215.101	65.3614	556.379	2.0932	-7.8791	10.0466
-125.879	130.603	775.307	5.3008	-13.2761	10.453
-36.6574	50.3516	690.032	3.4173	-15.212	9.8587
-146.57	67.9926	796.596	7.3766	-14.7837	9.5266
-266.947	229.333	1147.86	11.1216	-12.8784	9.6184
-152.251	67.0956	1131.95	9.3736	-12.4152	9.9505
-178.742	149.919	1140.51	10.1122	-9.0678	9.8325
-61.7136	47.0626	1098.82	10.1078	-6.3409	9.1289
-153.447	17.8204	1658.07	15.295	-5.3227	9.1901
-119.839	15.7872	1620.22	4.5055	-5.6897	9.3343
-100.404	52.923	1208.44	-0.6555	-1.4115	8.7706
-155.181	124.982	1503.97	2.8492	0.3496	8.3685
-111.527	14.8902	1223.57	-5.2222	-1.1318	9.0809
-170.729	136.882	1274.46	-3.9723	0.8521	9.0896
-134.849	98.4308	1016.48	-7.6781	2.6133	8.7444
-148.125	93.4076	951.597	-6.4938	2.6133	8.705
-135.387	106.384	915.359	-5.5237	3.4436	8.4953
-92.989	61.2352	827.871	-5.563	4.1428	8.3336
-88.9824	34.6242	788.762	-3.85	4.2826	8.4953
-64.4644	37.375	770.523	-3.059	3.8194	8.8798
-66.9162	41.9796	729.44	-2.1369	3.8281	9.1639
-58.8432	8.5514	675.022	-2.4865	2.9541	9.3081
-94.4242	65.78	708.451	-1.5339	1.0619	9.4392
-112.245	67.9328	715.387	-1.5164	0.0961	9.4217
-142.563	78.0988	814.596	-0.1049	-0.9658	9.4086
-153.148	77.3812	820.516	0.2316	-1.0051	9.1814
-125.401	91.1352	855.499	1.6519	-1.0313	8.9454
-134.789	67.6338	905.312	2.5564	-0.5856	8.7793
-120.019	59.1422	889.585	3.1027	-0.2141	8.7138
-95.0222	51.3084	946.813	4.1515	-0.2928	8.6089
-87.906	29.6608	984.248	4.1209	-0.3409	8.5565
-80.8496	40.7238	1004.46	2.9978	-0.8478	8.622
-101.062	45.2088	993.517	1.0969	-1.0095	8.775
-126.178	86.7698	992.501	0.791	-1.0794	8.8886
-120.318	61.893	965.949	-0.6599	-1.394	8.9061
-149.081	99.6268	1007.75	0.472	-0.6948	8.7181
-124.922	54.9562	973.604	-0.7997	0.2185	8.5783
-112.005	58.4246	1064.68	-0.0044	0.2229	8.4822
-112.424	6.4584	1075.74	-1.3416	0.6948	8.4909
-92.7498	72.8962	1023.72	-0.9614	1.5033	8.6919
-125.879	11.4816	959.551	-1.5819	1.9272	8.858
-100.165	73.9128	1040.7	1.193	3.0066	8.8536
-63.3282	32.9498	959.91	-0.5899	4.3831	8.7225
-100.524	32.1724	908.9	-0.153	4.287	8.6613
-89.5206	35.5212	814.715	-1.1624	4.1646	8.4385
-101.241	59.9794	810.948	-0.2185	2.9891	8.4996
-109.135	47.4214	837.26	0.3889	3.5353	8.4254
-112.304	51.9662	858.01	0.8085	3.5441	8.2986
-93.4674	31.096	818.004	0.5375	3.4873	8.2243
-102.796	39.468	864.828	1.6606	2.8711	8.1107
-112.304	39.468	843.957	0.9439	1.9578	8.1282
-129.407	54.4778	916.495	2.0189	1.0881	8.0233
-105.128	64.4046	978.687	2.469	1.1843	8.0277
-133.294	28.8236	999.736	1.547	1.5514	8.1195
-95.7996	41.1424	970.674	2.0452	1.6344	8.0801
-78.338	52.923	843.898	0.6162	1.2979	8.0932
-112.364	17.342	873.439	1.4945	0.2491	8.1151
-94.6634	50.2918	904.714	2.102	-0.4064	8.1675
-100.763	36.2388	876.608	0.9876	-0.083	8.0714
-118.882	73.853	972.348	2.4428	-0.8172	8.2331
-103.813	41.2022	880.196	0.5419	-0.7647	8.386
-134.969	69.4278	967.743	2.4253	0.0874	8.2156
-107.102	39.2288	972.707	1.4334	-0.8303	7.9752
-119.72	24.817	1037.29	1.2323	-0.5506	7.7917
-116.61	67.9926	1056.96	0.2316	-0.7429	7.7567
-118.703	64.4046	994.474	-1.193	-0.201	7.6693
-136.105	50.232	1002.07	-1.1056	0.4807	7.63
-124.563	67.574	1024.37	-1.3066	0.7036	7.4683
-100.763	38.4514	951.418	-2.7662	1.1231	7.1449
-124.324	60.697	998.78	-2.3336	1.2892	6.9527
-100.344	53.4612	942.926	-3.9811	1.2935	6.8041
-119.181	50.1722	914.641	-3.8587	1.5688	6.6293
-101.899	27.8668	859.924	-4.0685	1.4159	6.4152
-98.9092	40.0062	857.293	-3.531	1.2411	6.2972
-88.3844	29.003	929.053	-2.9497	0.721	6.1617
-99.8062	12.1992	877.206	-3.5528	1.6213	5.9519
-104.291	2.99	909.857	-2.303	2.3248	5.7291
-63.089	14.5314	872.542	-2.1369	2.2025	5.4538
-60.8764	-1.6146	796.955	-1.5688	3.4173	5.2615
-85.9326	-23.6808	845.931	0.3365	3.7669	5.244
-55.3748	-48.0194	821.413	0.5375	3.7495	5.126
-47.6008	-29.003	870.748	1.8791	3.898	4.9337
-24.6974	-51.3084	837.08	1.027	2.539	4.9031
-82.524	-29.0628	890.362	2.0452	2.0845	5.0036
-93.7664	-24.7572	874.515	1.8354	1.5426	4.9731
-100.165	-22.9632	946.096	2.9061	1.1449	4.7808
-73.1952	-18.4782	931.744	2.2331	0.437	4.5841
-117.328	7.2956	910.276	2.7837	0.2928	4.4181
-93.886	-29.1824	823.865	3.0197	-0.083	4.0554
-115.892	-12.558	941.252	5.6897	-0.4588	3.8674
-67.0956	-51.8466	930.309	5.4319	-0.3321	3.6009
-64.7036	-32.0528	932.103	6.4938	0.2054	3.2207
-72.2982	-62.0126	949.086	6.555	-0.3933	2.9672
-62.0724	-72.7766	978.627	6.8959	-0.957	2.7181
-66.3182	-65.3614	1033.05	6.555	-1.5557	2.4647
-81.6868	-43.7736	1048.47	4.8857	-2.0757	2.1631
-92.8096	-42.9962	1034.12	3.9286	-1.8529	1.748
-118.464	-25.2954	1091.23	4.1908	-1.276	1.3372
-94.4242	-25.2356	1042.67	2.7356	-1.5164	0.8259
-76.843	-49.6938	1058.88	2.3817	-1.1755	0.2491
-116.969	-24.219	1101.4	2.4559	-0.0787	-0.2403
-83.72	-73.0756	1057.26	1.2017	0.0568	-0.6293
-63.5674	-60.6372	1073.47	1.7261	1.1449	-1.0138
-43.8932	-81.2084	1029.76	1.1799	1.63	-1.0881
-53.2818	-104.231	969.836	0.9964	2.6307	-1.193
-42.6972	-125.759	941.073	1.1712	2.8143	-1.4552
-22.4848	-129.467	966.428	1.1843	2.1806	-1.6038
-31.6342	-111.407	953.93	0.6948	1.6519	-1.4945
-62.6106	-103.693	914.222	0.3103	1.6387	-1.5688
-52.3848	-108.956	860.163	0.3627	1.2498	-1.7393
-54.9562	-92.0322	865.725	0.839	0.8434	-1.7524
-61.3548	-84.318	901.844	1.6999	-0.0131	-1.7961
-55.016	-111.108	864.828	1.0663	0.4676	-2.0845
-61.3548	-91.8528	943.046	2.7793	0.0218	-2.2156
-51.428	-112.544	909.199	1.5688	0.0087	-2.1631
-63.687	-90.7764	967.325	3.1595	0.6162	-2.1981
-47.1224	-125.58	907.884	2.2593	1.1449	-2.3248
-44.1324	-123.188	933	3.8063	1.5208	-2.421
-40.2454	-143.4	917.093	3.2644	1.1537	-2.4166
-46.1656	-148.424	958.175	3.9898	0.909	-2.4996
-59.8	-151.294	977.67	4.1821	0.8827	-2.5783
-35.7006	-129.048	979.524	4.5448	0.3977	-2.5477
-55.7934	-113.261	1008.71	5.2571	0.2972	-2.504
-60.2784	-143.101	982.095	4.89	0.4588	-2.6133
-66.9162	-126.537	987.178	5.1085	0.3671	-2.8929
-37.7338	-123.128	973.664	4.5841	-0.8128	-2.8492
-73.7334	-97.6534	1002.91	4.3744	-1.1406	-2.8886
-77.5008	-97.6534	948.189	3.3562	-1.0706	-3.059
-90.2382	-99.7464	956.621	3.5135	-0.8784	-3.2207
-67.873	-110.75	952.734	3.1683	-1.1231	-3.4217
-62.6106	-93.7066	960.747	2.8667	-0.9133	-3.5615
-53.7004	-124.504	946.215	2.15	-0.8784	-3.697
-69.8464	-123.726	999.437	2.0495	-0.8478	-3.7757
-51.129	-136.643	1068.98	1.2061	-1.1318	-3.7757
-54.3582	-127.553	1175.49	0.3889	-0.6555	-3.7626
-64.5242	-128.869	1119.52	-1.6737	0.3015	-3.7582
-74.0922	-113.142	1031.13	-2.2025	2.303	-3.697
-54.8366	-115.474	1000.63	-0.6774	4.1821	-3.7626
-42.2786	-144.178	985.325	0.035	5.7072	-4.1078
-11.2424	-173.48	944.72	-0.0961	5.9301	-4.3481
-22.8436	-172.284	904.355	-0.4151	5.6985	-4.1996
-43.1158	-137.241	897.658	0.3977	5.9519	-4.0335
-37.2554	-158.889	857.054	0.2753	5.6023	-3.9811
-40.4248	-142.204	846.29	1.1275	4.9993	-3.9985
-55.4944	-124.384	819.619	1.1318	4.2039	-3.898
-66.6172	-118.225	846.529	1.8398	3.2163	-3.9942
-65.6604	-126.537	834.15	1.3372	2.1937	-4.1078
-63.6272	-87.6668	850.954	1.63	1.0838	-4.0029
-94.0654	-106.683	857.711	1.1362	-0.0262	-3.933
-96.9956	-102.019	820.815	0.5812	-1.4115	-3.8281
-74.6902	-85.2748	813.101	1.5295	-1.6169	-3.6926
-98.0122	-93.0488	826.137	3.2382	-0.6031	-3.6096
-67.6338	-134.49	915.119	4.4137	-1.8966	-3.6315
-25.8336	-182.031	904.595	4.0248	-2.2418	-3.5834
-54.1788	-131.082	990.348	5.8864	-1.8704	-3.4392
-50.2918	-173.061	997.165	4.6235	-2.1544	-3.2425
-39.6474	-166.603	1030.06	5.0124	-2.6657	-2.9629
-56.3914	-143.341	1049.55	4.8594	-2.7968	-2.7924
-65.7202	-115.235	1066.11	4.571	-3.0022	-2.7444
-97.5338	-110.211	1048.59	4.2258	-2.539	-2.9148
-88.9226	-126.776	994.295	3.7363	-2.3292	-3.0721
-89.102	-82.2848	1067.85	5.279	-1.665	-3.3168
-89.7	-97.2946	1025.03	3.6621	-1.5251	-3.5004
-87.9658	-126.836	1046.44	3.4261	-1.9359	-3.6358
-87.7266	-102.138	990.707	2.6351	-1.1056	-3.6708
-88.2648	-96.9956	1020.07	2.7444	-1.1143	-3.7582
-88.2648	-131.381	1004.94	1.9315	-1.866	-3.7757
-80.7898	-131.381	1002.49	1.8704	-1.0007	-3.9854
-96.3378	-117.806	1030.89	2.1238	-0.6686	-4.0685
-80.5506	-149.679	1006.97	1.4203	-0.6249	-4.0423
-81.7466	-149.679	1048.77	1.9184	-0.236	-4.0073
-75.946	-153.985	1043.99	1.6038	0.3365	-3.9374
-68.2916	-151.174	1043.99	1.3853	0.756	-3.8937
-67.5142	-172.583	1025.99	1.3416	1.3154	-3.8237
-68.8896	-157.214	979.644	0.9221	1.2673	-3.815
-68.6504	-171.267	952.255	1.4071	1.2848	-3.8718
-67.4544	-140.41	965.471	0.3103	0.6992	-3.6577
-90.5372	-150.397	923.133	-0.153	0.2709	-3.5878
-97.4142	-145.015	876.01	0.9964	0.4239	-3.7232
-127.195	-125.281	931.505	0.8303	-0.2491	-3.9286
-111.467	-144.596	926.721	1.3372	0.472	-4.016
-118.284	-124.563	937.784	1.1056	0.5681	-4.134
-122.65	-163.792	917.691	2.0408	0.7473	-4.2782
-124.444	-168.098	959.192	1.9184	0.7123	-4.2214
-88.6834	-156.377	937.126	2.421	0.9701	-4.169
-109.972	-184.005	948.129	2.5827	0.756	-4.1384
-106.982	-205.473	954.109	3.2076	1.075	-4.0816
-94.783	-166.364	973.305	3.2163	1.0138	-4.1122
-103.932	-190.224	1002.91	2.2331	1.0619	-3.9942
-106.265	-223.712	924.687	3.4916	0.5943	-3.6752
-98.1318	-147.467	933.299	4.0597	0.4938	-3.7626
-117.627	-157.513	975.996	2.7618	0.1355	-3.8937
-132.756	-187.234	928.335	2.7618	-0.2797	-3.9243
-142.324	-150.098	862.914	2.2112	-0.2797	-3.9243
-170.071	-124.264	974.86	4.3744	-1.8704	-4.0248
-118.703	-165.825	978.507	3.9505	-0.7866	-4.0029
-158.41	-162.237	974.202	5.1872	-0.7866	-3.8674
-135.148	-169.055	908.482	5.4669	-0.6511	-4.0816
-89.2216	-183.586	968.341	7.276	-1.4071	-4.0816
-100.404	-214.981	997.584	7.1275	-2.2855	-4.1165
-107.162	-161.58	973.245	6.1267	-3.4698	-3.6883
-148.005	-172.942	1017.68	6.4064	-3.6009	-3.6052
-111.049	-167.799	1038.61	6.236	-3.8412	-3.6184
-133.533	-127.912	1018.75	5.9082	-3.7582	-3.5353
-157.334	-170.071	925.764	4.689	-3.8631	-3.6358
-153.507	-138.497	1051.64	6.8522	-3.6446	-4.0248
-129.706	-137.42	1019.65	5.4844	-2.7531	-4.1078
-137.839	-148.125	944.302	5.0998	-1.949	-4.0816
-123.846	-169.533	945.737	5.2877	-1.7174	-4.1515
-131.56	-158.111	1068.81	6.6905	-1.4814	-4.2433
-126.058	-186.157	1082.08	5.0517	-0.8259	-4.1602
-102.916	-146.45	1109.29	4.7414	-0.2229	-4.1559
-119.421	-173.659	1085.49	3.6708	1.0794	-4.1734
-174.257	-247.153	1151.45	3.9505	2.6133	-4.1908
-164.928	-168.038	1166.58	3.9286	4.0248	-3.8369
-70.8032	-148.005	1003.5	2.7531	3.7363	-3.9024
-103.514	-183.646	1063.9	4.3918	3.7538	-4.1034
-187.294	-165.706	1012.29	2.185	3.8806	-3.8412
-151.593	-166.005	967.504	1.3591	4.252	-3.8718
-94.9624	-123.248	972.049	2.6001	3.6096	-3.9592
-137.062	-132.876	939.877	1.4071	2.3074	-3.8106
-206.131	-116.132	934.375	1.4421	2.102	-3.8849
-174.676	-115.474	860.044	0.1835	1.8616	-4.1165
-184.124	-117.985	858.13	1.7043	1.8704	-4.5361
-159.546	-122.171	848.921	2.1937	1.429	-4.5361
-140.949	-139.693	858.489	3.3649	1.1624	-4.5186
-131.5	-173.3	892.575	4.6147	0.8784	-4.4924
-125.042	-177.785	941.013	4.654	-0.1617	-4.2957
-111.049	-172.463	892.515	4.1602	-1.0138	-4.0685
-143.64	-136.404	826.556	4.4356	-1.3765	-3.8762
-123.128	-166.543	746.364	4.4705	-2.5739	-3.7363
-194.649	-145.194	1029.76	8.5084	-3.2819	-3.5747
-140.291	-171.686	1255.92	7.6825	-4.0947	-3.4654
-155.779	-144.836	1106.12	4.8988	-2.1631	-3.496
-128.69	-148.483	899.93	3.6621	-0.8915	-3.6184
-152.849	-91.494	1056.79	7.1668	-2.3117	-3.6315
-147.766	-168.098	1010.5	4.2302	-2.6963	-3.6621
-156.736	-80.3114	1025.51	5.1173	-1.7261	-3.7538
-111.228	-126.537	865.426	2.4734	-2.5521	-3.7713
-151.952	-89.102	979.763	4.606	-3.732	-3.7232
-161.34	-76.544	974.321	4.1559	-3.5397	-3.9024
-144.716	-115.892	962.78	3.6227	-3.2862	-4.1165
-127.135	-125.819	961.943	4.3787	-2.8711	-4.2127
-122.112	-107.341	1041	4.9031	-2.7181	-4.0903
-112.005	-152.49	1077.42	4.2826	-2.6482	-3.898
-119.062	-131.799	1111.38	4.0423	-2.6089	-3.7757
-154.942	-141.726	1044.89	2.5783	-2.4166	-3.6096
-143.042	-127.434	1073.65	2.6176	-2.6176	-3.531
-95.9192	-91.0754	1021.44	2.15	-2.9148	-3.3649
-141.965	-106.863	1053.86	2.2942	-3.0634	-3.378
-141.965	-114.936	1013.49	1.1187	-3.2119	-3.3081
-157.693	-100.763	963.617	0.6468	-2.6045	-3.2294
-140.949	-77.3812	995.73	1.8878	-2.0757	-3.343
-128.331	-93.288	1004.58	2.303	-1.2629	-3.5004
-123.188	-140.829	946.455	2.3161	0.6249	-3.6883
-174.018	-152.909	1026.41	3.1639	1.2542	-3.7276
-23.5014	-141.367	909.977	1.0575	0.0787	-3.8281
-99.5072	-132.158	1032.21	2.1151	-0.3889	-3.3343
-197.28	-141.367	1003.03	0.7298	-0.2272	-3.2032
-100.703	-107.042	935.152	-0.6774	-1.0357	-3.4436
-108.716	-96.6368	955.126	-0.2403	-2.1937	-3.3999
-205.413	-82.4044	959.85	0.2098	-2.0801	-3.2688
-155.121	-80.0124	904.774	-0.2578	-1.9621	-3.5266
-121.035	-85.0356	934.794	0.9264	-2.7837	-3.5965
-181.493	-93.886	1001.89	2.0146	-2.7007	-3.5178
-140.291	-104.949	1025.21	1.6562	-2.7138	-3.6839
-147.168	-145.434	1089.62	1.783	-2.775	-3.8194
-117.268	-140.53	1102.05	0.8478	-3.3999	-3.7058
-136.404	-92.9292	1054.09	-0.1704	-3.78	-3.5178
-139.932	-134.67	899.93	-1.8223	-3.9199	-3.5572
-151.653	-69.4876	943.106	0.4588	-4.0947	-3.579
-120.318	-130.842	867.638	-0.3846	-4.335	-3.6446
-121.633	-111.706	930.966	2.1063	-3.614	-3.7014
-77.6204	-175.633	834.808	1.7087	-3.1333	-3.7232
-74.8098	-150.218	852.868	3.9636	-2.3117	-3.6621
-130.364	-178.204	892.455	4.453	-2.9454	-3.3693
-86.2914	-164.988	1118.26	5.2658	-3.5703	-3.4741
-75.8264	-161.281	829.665	1.9621	-1.4465	-3.6839
-165.945	-120.318	1071.32	4.5535	-2.7487	-3.579
-76.0656	-170.37	986.521	1.4203	-4.0859	-3.5572
-181.433	-92.4508	1087.58	2.6788	-2.1763	-3.8456
-144.955	-137.899	975.278	-0.0306	-2.0364	-4.1296
-150.816	-97.2946	1026.17	1.2236	-2.0845	-4.2695
-174.018	-104.052	1077.6	0.5288	-1.831	-4.5186
-146.151	-127.912	1021.98	-0.3277	-1.2542	-4.6715
-164.151	-117.926	1036.04	-0.2316	-1.1056	-4.654
-138.317	-144.955	1010.08	-1.3547	-1.4683	-4.5317
-151.952	-133.294	1063.9	-0.638	-1.0488	-4.488
-130.543	-166.364	1029.22	-1.7349	-1.228	-4.3831
-145.613	-155.6	1046.56	-1.6606	-1.228	-4.2127
-153.267	-161.4	1005.3	-1.8572	-1.1275	-4.0903
-155.659	-175.035	1008.77	-1.1755	-0.5637	-3.9942
-130.185	-187.234	988.913	-1.1143	-0.3627	-3.8631
-143.759	-188.31	936.049	-0.721	-0.1835	-3.7058
-142.025	-206.788	930.309	0.1879	-0.3103	-3.614
-136.224	-198.536	949.803	1.0051	-0.8784	-3.5528
-153.208	-203.858	934.853	1.0706	-1.1362	-3.5091
-157.932	-186.935	929.89	1.547	-1.1712	-3.4916
-157.693	-170.968	895.864	1.8747	-1.3328	-3.5047
-159.247	-191.3	891.618	2.1326	-2.2811	-3.6009
-176.111	-169.354	937.485	2.7706	-2.6526	-3.7145
-183.706	-166.124	924.628	2.1413	-2.8361	-3.8194
-170.43	-158.948	900.229	2.0058	-2.9585	-3.8587
-185.5	-159.068	919.844	2.6875	-2.9235	-3.8587
-171.925	-166.423	909.498	2.6439	-2.8973	-3.8718
-188.609	-175.513	938.621	2.9978	-3.1114	-3.8674
-167.679	-173.659	934.674	2.9104	-3.4567	-3.8456
-191.061	-169.473	988.972	3.2119	-3.4304	-3.7888
-177.367	-178.503	976.893	2.5346	-3.9767	-3.5921
-195.486	-190.523	999.856	2.775	-3.9854	-3.531
-194.171	-185.021	1000.99	2.6788	-4.1165	-3.4261
-196.682	-199.194	1012.65	2.775	-3.9723	-3.3518
-177.845	-201.526	1006.02	2.7531	-3.6271	-3.3037
-178.204	-192.975	1027.6	3.3649	-2.9672	-3.1726
-183.945	-245.18	1050.33	3.2644	-2.6176	-3.0328
-171.028	-210.376	1038.25	2.6744	-2.2899	-2.7968
-180.237	-222.875	1049.73	1.9446	-2.6482	-2.5696
-183.108	-217.373	1046.08	0.9395	-2.7356	-2.3336
-214.921	-183.048	1038.19	0.1879	-2.9366	-2.1238
-236.27	-195.068	1011.94	-0.3889	-2.9323	-2.0976
-228.197	-173.779	1029.46	0.153	-2.8143	-2.1719
-225.386	-193.991	1006.08	-0.3015	-2.6701	-2.2506
-223.413	-164.39	982.693	0.354	-2.1937	-2.2899
-208.463	-212.41	971.391	0.5594	-2.1326	-2.4122
-208.642	-203.619	978.328	0.8609	-2.303	-2.3773
-196.323	-204.875	941.551	0.4064	-2.5215	-2.3467
-210.436	-207.805	926.661	0.5113	-2.9454	-2.3074
-211.393	-206.968	922.236	0.3365	-3.461	-2.3991
-219.466	-202.602	960.328	0.7036	-3.9811	-2.4341
-221.679	-199.313	952.375	0.3889	-4.2127	-2.4428
-220.841	-205.533	947.651	0.3234	-4.2607	-2.4166
-198.237	-207.147	954.468	0.8259	-4.5011	-2.4341
-205.951	-220.901	970.674	0.7997	-4.2913	-2.3074
-201.227	-217.194	979.345	1.0182	-4.3176	-2.2068
-207.925	-220.303	1013.91	1.0663	-3.7189	-2.1544
-199.971	-220.542	1006.61	0.7735	-3.3824	-2.0932
-208.343	-242.549	1006.61	0.6468	-2.8274	-1.9359
-194.888	-231.785	1024.02	1.0619	-2.3292	-1.8398
-191.958	-259.353	1010.26	0.7298	-2.0626	-1.6912
-185.978	-258.157	1019.71	0.8041	-1.8004	-1.5208
-188.789	-221.38	992.321	0.791	-1.4814	-1.4465
-176.888	-242.19	983.59	1.0575	-1.0182	-1.311
-193.094	-236.928	1002.61	1.7742	-0.319	-1.1012
-217.911	-229.154	978.926	1.5776	0.3146	-0.9745
-188.25	-216.775	946.574	1.2935	0.7123	-1.0488
-211.752	-208.523	944.9	0.9832	-0.1136	-1.2542
-232.861	-219.107	940.534	0.4195	-0.7342	-1.6125
-235.134	-178.682	939.338	-0.0524	-1.2411	-1.7567
-270.296	-177.307	939.219	-0.3583	-1.8441	-1.8354
-247.871	-162.297	949.265	0.3627	-2.0102	-2.0495
-247.034	-169.114	956.441	0.3977	-2.067	-2.1719
-231.187	-195.965	967.205	0.8216	-2.3117	-2.4079
-203.081	-200.988	966.368	0.8434	-2.3685	-2.4865
-192.018	-211.812	991.065	1.2892	-2.6875	-2.303
-168.217	-223.652	999.198	1.11	-3.0634	-2.0452
-145.912	-219.047	1005.42	0.8216	-3.461	-1.5514
-151.653	-238.961	1010.26	0.5943	-3.6839	-0.9614
-147.586	-219.227	1009.01	0.1661	-4.016	-0.4676
-151.832	-190.523	1012.11	-0.0437	-4.3001	-0.1311
-147.766	-192.018	991.843	-0.5943	-4.4006	0.0874
-138.856	-158.829	975.697	-0.7254	-4.405	0.2928
-151.294	-146.57	956.86	-0.7866	-4.0029	0.4545
-132.218	-147.826	937.485	-0.1966	-3.4523	0.6992
-148.782	-136.224	945.259	1.0575	-2.3685	0.8784
-147.527	-153.088	948.966	1.9534	-1.8791	0.8871
-107.162	-175.633	952.674	1.9272	-1.8966	0.7254
-107.162	-169.533	994.115	2.1282	-2.6482	0.6861
-105.846	-180.596	979.285	1.2454	-3.0896	0.7779
-114.457	-153.806	998.481	1.3547	-3.5965	0.9789
-137.241	-149.201	996.029	1.1493	-3.461	1.1755
-136.942	-136.822	994.115	1.4028	-3.2425	1.2149
-139.214	-129.347	1013.55	1.6956	-2.8012	0.8784
-120.437	-145.912	1009.12	1.5295	-2.3511	0.6162
-146.988	-155.779	992.68	1.4683	-2.0714	0.4894
-143.46	-153.267	991.305	1.2629	-2.2942	0.3846
-113.321	-142.982	975.398	0.8521	-2.15	0.3933
-114.158	-138.258	965.232	0.3671	-2.3729	0.5681
-100.404	-146.988	960.627	-0.1704	-2.8012	0.7866
-113.799	-152.131	946.933	-0.3715	-3.1639	1.0881
-106.025	-134.311	911.95	-0.284	-3.0677	1.5076
-76.7234	-120.258	899.332	0.6599	-2.4035	1.8485
