A_X [mg] A_Y [mg] A_Z [mg] G_X [dps] G_Y [dps] G_Z [dps] 
16.3254	-0.0598	981.139	1.8922	-1.1799	-0.4108
7.774	-7.8936	973.723	1.9184	-1.2061	-0.4457
14.5314	-0.7774	981.318	1.8441	-1.1668	-0.4632
5.7408	-9.3288	970.853	1.9446	-1.2323	-0.4283
17.1626	0.3588	982.813	1.8966	-1.2061	-0.4414
5.98	-6.8172	970.674	2.0058	-1.2192	-0.4545
16.2656	-1.9136	981.198	1.9184	-1.1493	-0.4676
4.9036	-7.5946	971.929	1.9796	-1.2017	-0.4807
16.8636	-4.3056	982.155	1.8616	-1.1974	-0.437
6.2192	-4.6046	974.082	1.8529	-1.1974	-0.4676
14.2922	-4.6046	976.594	1.8529	-1.1537	-0.4588
8.1926	-2.2724	976.893	1.9578	-1.1799	-0.4195
13.9334	-6.1594	978.089	1.9141	-1.1799	-0.472
10.3454	-1.9734	978.687	1.866	-1.1581	-0.4414
11.0032	-8.1926	974.501	1.9053	-1.1493	-0.4457
14.1128	-1.9734	978.268	1.9796	-1.1668	-0.4457
10.764	-7.8936	974.441	1.9446	-1.1974	-0.4457
13.6344	-0.1794	979.345	1.9184	-1.1755	-0.4545
7.2956	-9.9866	971.032	1.8966	-1.1886	-0.4108
13.9932	0.7176	982.095	1.9578	-1.1974	-0.4457
6.8172	-8.97	970.614	1.866	-1.1624	-0.4108
16.445	-0.7176	983.471	1.9141	-1.2061	-0.4326
5.8006	-7.8338	970.494	1.8835	-1.1843	-0.4501
17.5214	-1.5548	983.291	1.9665	-1.2149	-0.4457
6.1594	-6.9368	973.723	1.8922	-1.1493	-0.4588
15.4882	-3.4086	979.285	1.8922	-1.1974	-0.4763
5.9202	-4.784	973.245	1.9621	-1.2017	-0.4326
17.043	-4.784	978.388	1.9315	-1.2149	-0.4283
7.176	-3.1096	974.86	1.9009	-1.1712	-0.4108
13.8736	-6.2192	976.833	1.9578	-1.193	-0.4763
10.465	-4.7242	977.132	1.9883	-1.1755	-0.4545
12.1992	-6.578	977.132	1.9097	-1.1974	-0.4239
11.063	-1.196	977.79	1.9097	-1.193	-0.4283
10.6444	-8.5514	974.202	1.9141	-1.2192	-0.402
13.455	1.3754	980.242	1.9184	-1.2498	-0.3933
8.8504	-8.7308	971.87	1.8878	-1.1449	-0.4326
13.6344	-0.3588	982.693	1.9053	-1.2061	-0.4632
6.877	-10.166	970.135	1.9141	-1.1581	-0.4501
17.2822	-0.598	983.59	2.0102	-1.2149	-0.472
7.5348	-8.2524	971.092	1.9097	-1.1886	-0.4064
16.0264	-0.4784	981.617	1.9009	-1.228	-0.4457
4.186	-6.6976	971.032	1.9097	-1.193	-0.4588
16.744	-2.2724	981.737	1.9796	-1.1886	-0.4457
5.8006	-5.6212	971.69	1.8835	-1.1537	-0.4283
16.744	-4.0066	979.644	1.9796	-1.1974	-0.4457
8.2524	-5.8006	974.8	1.9097	-1.1581	-0.4632
15.249	-4.186	980.361	1.9272	-1.2017	-0.4414
7.774	-3.8272	975.757	1.8791	-1.1712	-0.3846
11.362	-6.877	975.757	1.9009	-1.1668	-0.4326
10.465	-0.0598	977.61	1.8878	-1.2192	-0.4064
12.1394	-6.6976	974.561	1.9184	-1.2017	-0.4632
12.7374	-0.6578	979.464	1.984	-1.228	-0.437
8.073	-8.7906	971.87	1.8398	-1.1755	-0.4108
14.7706	-0.5382	982.275	1.949	-1.1843	-0.4283
9.3288	-9.568	972.946	1.9403	-1.1755	-0.4588
14.8304	0.5382	981.198	1.9097	-1.2061	-0.472
6.3986	-8.0132	970.195	1.8791	-1.1974	-0.4108
17.4018	-1.0764	982.693	1.9665	-1.2061	-0.4763
5.7408	-7.4152	970.733	1.8485	-1.1712	-0.437
16.0862	-2.0332	982.215	1.9752	-1.1799	-0.4588
5.8006	-9.0896	971.571	1.9184	-1.1318	-0.437
17.8204	-2.99	982.215	1.9315	-1.1799	-0.4545
6.9966	-4.6644	973.066	1.8835	-1.2061	-0.4283
15.0696	-4.7242	978.567	1.9053	-1.2323	-0.4326
6.6976	-4.3056	974.142	1.8791	-1.1886	-0.4501
13.455	-5.1428	978.627	1.9141	-1.1974	-0.4588
9.9866	-1.7342	977.012	1.9228	-1.2105	-0.4108
12.259	-7.8338	974.8	1.8616	-1.1624	-0.4807
12.9766	-2.0332	979.763	1.949	-1.1755	-0.4545
10.5846	-8.5514	975.338	1.8966	-1.1581	-0.437
13.3952	-0.598	979.823	1.8835	-1.2236	-0.4501
7.176	-9.0896	970.375	1.8441	-1.2105	-0.4763
16.2058	0.0598	982.933	1.9709	-1.2105	-0.437
7.1162	-8.1926	969.896	1.9097	-1.1843	-0.4195
16.3852	-0.8372	981.737	2.0102	-1.1974	-0.4457
6.578	-10.1062	971.63	1.8878	-1.1668	-0.4632
16.9234	-2.2126	983.71	1.9578	-1.1799	-0.437
6.0398	-6.0398	972.169	1.8878	-1.1362	-0.4457
16.0862	-2.3322	980.301	1.9403	-1.2017	-0.4064
5.8604	-4.3654	970.973	1.9184	-1.228	-0.4239
16.2656	-3.0498	981.258	2.0102	-1.2236	-0.4851
7.475	-4.485	973.843	1.9009	-1.2192	-0.4632
12.259	-6.2192	977.61	1.9053	-1.2017	-0.4501
10.0464	-4.3654	976.414	1.9141	-1.1712	-0.4938
13.9932	-6.3388	976.056	1.9228	-1.2236	-0.4894
11.661	-0.2392	979.225	1.8878	-1.2542	-0.437
8.1926	-8.2524	973.544	1.9315	-1.2017	-0.4501
12.9766	-0.598	979.943	1.9315	-1.1799	-0.402
9.2092	-9.0298	972.169	1.9097	-1.1974	-0.4326
13.6942	1.9136	981.079	1.9796	-1.2149	-0.4938
8.8504	-10.3454	970.913	1.9009	-1.1843	-0.437
17.1626	-0.3588	983.77	1.9578	-1.2061	-0.4501
5.8006	-7.6544	970.793	1.8616	-1.1799	-0.4239
16.2656	-2.093	982.992	1.8835	-1.2061	-0.4588
5.4418	-7.5946	970.195	1.831	-1.1231	-0.4195
18.1194	-0.897	981.796	1.9621	-1.2192	-0.4894
7.176	-5.7408	971.989	1.9097	-1.1712	-0.4545
15.0696	-4.5448	979.823	1.8966	-1.1843	-0.4414
7.0564	-5.8604	971.989	1.9097	-1.1886	-0.4894
15.1294	-5.3222	981.856	1.9665	-1.1755	-0.4938
8.8504	-3.1694	973.424	1.8747	-1.1974	-0.437
12.558	-5.9202	976.474	1.8922	-1.1799	-0.4457
10.8836	-1.7342	978.747	1.9053	-1.2149	-0.437
11.8404	-6.877	973.484	1.9141	-1.2061	-0.4414
11.5414	0.1196	981.079	1.9359	-1.1974	-0.4457
9.0298	-10.8238	971.152	1.8791	-1.1537	-0.472
14.7706	0.1794	981.378	1.949	-1.2673	-0.4807
8.4318	-8.3122	973.125	1.8704	-1.193	-0.4545
16.3852	-0.4784	981.019	1.9141	-1.2236	-0.4457
5.083	-8.073	971.87	1.8922	-1.2192	-0.3977
15.847	-0.5382	982.813	1.9752	-1.2323	-0.4414
7.3554	-6.9368	970.255	1.9315	-1.1974	-0.4938
16.8038	-1.0764	982.215	1.9403	-1.2149	-0.4064
6.6378	-6.7574	969.119	1.9009	-1.1755	-0.4283
18.837	-2.8704	983.411	1.9534	-1.2149	-0.4632
5.8006	-6.0398	973.006	1.8572	-1.2061	-0.4239
13.0962	-3.7076	979.105	1.9228	-1.2105	-0.4501
8.372	-4.4252	974.86	1.9272	-1.2017	-0.4414
14.8902	-5.5614	977.61	1.9359	-1.2105	-0.472
9.7474	-1.3754	976.534	1.9403	-1.1668	-0.4151
11.2424	-8.5514	974.68	1.9097	-1.1318	-0.437
11.96	-2.093	978.328	1.9359	-1.2323	-0.4545
10.166	-7.5946	974.262	1.9053	-1.2017	-0.4283
13.156	-0.4186	980.481	1.9403	-1.2105	-0.4195
8.4916	-8.8504	972.049	1.831	-1.1974	-0.4632
15.4882	0.897	980.84	1.9578	-1.2149	-0.4588
7.0564	-9.5082	973.604	1.9184	-1.1581	-0.4632
16.0264	-0.6578	981.976	1.9752	-1.2323	-0.4632
5.7408	-8.671	969.597	1.9228	-1.1712	-0.4763
18.5978	-2.1528	983.351	1.9315	-1.228	-0.402
6.6378	-5.98	970.853	1.8572	-1.2017	-0.4239
15.4284	-1.9136	981.617	1.9141	-1.1974	-0.4676
5.7408	-5.8604	972.767	1.8441	-1.1843	-0.437
15.1294	-4.0664	979.225	1.8747	-1.2192	-0.4326
7.5946	-3.289	973.783	1.9141	-1.1755	-0.4501
15.6078	-6.2192	976.953	1.9359	-1.1712	-0.4326
11.4816	-3.1096	978.926	1.9709	-1.1886	-0.437
12.6178	-6.279	976.893	1.8922	-1.1449	-0.402
10.5248	-2.093	977.371	1.8747	-1.1843	-0.4632
8.671	-8.0132	972.288	1.8747	-1.2149	-0.4414
13.8138	0.8372	978.926	1.9709	-1.2149	-0.437
10.6444	-8.3122	974.8	1.9272	-1.2017	-0.437
14.5314	0.4784	980.182	1.9184	-1.193	-0.4064
6.877	-10.8238	972.408	1.9228	-1.1493	-0.4195
17.1626	-1.3754	983.77	1.9709	-1.2061	-0.4064
6.1594	-7.3554	970.255	1.8747	-1.2017	-0.3933
15.7274	-0.1794	981.318	1.9578	-1.2367	-0.4414
5.6212	-7.7142	971.032	1.8922	-1.2061	-0.4283
17.8802	-1.4352	983.291	1.9272	-1.1974	-0.4457
5.382	-5.1428	972.049	1.8835	-1.1799	-0.4283
15.7274	-4.4252	979.763	1.9446	-1.2149	-0.4064
7.5946	-5.9202	973.903	1.9053	-1.1843	-0.4283
16.6842	-4.1262	978.687	1.9534	-1.2236	-0.4545
9.269	-3.289	976.833	1.9621	-1.2149	-0.437
12.1394	-6.8172	975.697	1.9053	-1.193	-0.4195
8.8504	-0.897	976.654	1.9709	-1.1624	-0.4195
11.1826	-8.4916	975.577	1.949	-1.2017	-0.472
11.8404	-0.2392	978.747	1.9578	-1.1799	-0.3933
9.7474	-8.671	972.228	1.866	-1.1449	-0.4457
15.548	-0.4784	982.095	1.9359	-1.1974	-0.4588
8.0132	-8.1328	973.604	1.8747	-1.193	-0.4283
14.5314	-0.598	981.378	1.9228	-1.1843	-0.4545
6.9368	-8.372	972.049	1.8791	-1.1187	-0.4457
18.0596	-0.4186	981.557	1.9097	-1.1886	-0.4501
6.6378	-6.279	972.049	1.8922	-1.1493	-0.4457
16.5048	-2.5116	980.6	1.9403	-1.1886	-0.4283
6.9966	-8.4318	972.169	1.8878	-1.1974	-0.4239
16.744	-3.7674	982.036	1.9883	-1.2017	-0.4239
7.5348	-5.382	973.783	1.8747	-1.1799	-0.4588
13.9932	-4.8438	976.355	1.9315	-1.2323	-0.4414
7.5946	-1.7342	975.099	1.9665	-1.2323	-0.4414
13.9334	-6.3986	977.252	1.9927	-1.2017	-0.4326
9.568	-1.196	978.507	1.9665	-1.1886	-0.4151
9.5082	-9.0298	973.066	1.9184	-1.1449	-0.437
12.7972	-1.6744	978.926	1.949	-1.2017	-0.437
11.3022	-7.1162	974.202	1.8704	-1.2061	-0.437
14.7706	1.1362	981.677	1.9097	-1.1799	-0.4283
6.5182	-8.4318	972.587	1.8835	-1.1362	-0.4545
15.0098	-0.7774	979.703	1.9446	-1.2061	-0.472
7.5348	-7.8936	971.81	1.9141	-1.1449	-0.4632
17.4018	0.4186	982.394	1.9403	-1.1886	-0.4457
7.4152	-8.7906	971.391	1.9097	-1.1886	-0.3846
17.4616	-1.3754	982.514	1.984	-1.228	-0.4457
5.6212	-7.8936	973.305	1.9097	-1.1668	-0.4545
16.3852	-3.4086	980.421	1.9403	-1.2105	-0.437
5.6212	-4.6644	971.929	1.8878	-1.2017	-0.4239
16.9832	-4.6046	979.404	1.9446	-1.2149	-0.4239
6.0996	-3.7674	974.919	1.8878	-1.2017	-0.4676
12.6178	-6.0996	976.235	1.8922	-1.1493	-0.4151
10.6444	-4.186	977.192	1.8704	-1.1886	-0.3933
13.2158	-6.4584	977.61	1.8747	-1.1449	-0.4239
10.764	-1.5548	977.969	1.8791	-1.2367	-0.4501
10.8238	-8.0132	974.321	1.9403	-1.193	-0.4501
12.7972	0.5382	977.79	1.9359	-1.2236	-0.3671
8.8504	-7.6544	971.75	1.9141	-1.1624	-0.4326
14.2324	0.0598	981.318	1.9752	-1.1406	-0.4239
7.2956	-10.8836	970.255	1.9184	-1.1449	-0.4151
16.6244	0.2392	983.65	1.9752	-1.2149	-0.4501
8.1328	-8.5514	970.973	1.8529	-1.1974	-0.472
17.4018	-0.0598	982.933	1.9359	-1.228	-0.4283
5.083	-6.6976	970.973	1.9446	-1.2411	-0.3933
17.043	-2.9302	981.677	1.9534	-1.2149	-0.4851
5.681	-6.279	971.75	1.8835	-1.193	-0.4195
16.9832	-3.0498	978.507	1.9359	-1.1755	-0.4064
9.3288	-5.3222	975.697	1.9053	-1.1886	-0.4151
15.6078	-5.2624	979.225	1.9272	-1.2017	-0.4239
6.6976	-2.9302	972.647	1.9053	-1.2017	-0.4588
11.6012	-6.7574	976.534	1.9403	-1.1755	-0.4588
12.0198	-2.093	976.953	1.8966	-1.228	-0.4763
12.6776	-6.578	975.637	1.9228	-1.2017	-0.4501
11.661	-1.0764	979.285	1.9315	-1.1755	-0.437
9.3886	-9.9268	971.571	1.8966	-1.1362	-0.4239
13.5148	0.8372	981.737	1.9315	-1.2192	-0.4588
9.3886	-9.0298	972.288	1.8922	-1.1886	-0.4501
15.4882	0.6578	981.856	1.9315	-1.2411	-0.4457
6.279	-8.073	969.717	1.866	-1.1843	-0.4414
16.445	-1.196	982.454	1.9752	-1.1799	-0.437
6.578	-7.4152	972.826	1.8878	-1.1362	-0.4414
16.5646	-1.9734	980.72	1.984	-1.1712	-0.4501
5.5016	-7.9534	972.228	1.9184	-1.1318	-0.4588
17.2224	-2.8106	980.242	1.9141	-1.1886	-0.4501
6.6976	-4.784	971.81	1.8791	-1.2411	-0.4326
15.4882	-4.2458	980.959	1.9403	-1.2061	-0.4457
6.6378	-4.5448	973.066	1.8572	-1.1624	-0.4195
12.9766	-5.5016	977.192	1.8966	-1.1843	-0.4457
8.8504	-2.392	975.338	1.9403	-1.1843	-0.4414
12.9766	-8.3122	974.082	1.9534	-1.1843	-0.4414
13.156	-0.897	980.421	1.9665	-1.193	-0.472
10.5846	-8.5514	973.424	1.9184	-1.1537	-0.4851
12.1394	-0.2392	981.258	1.9053	-1.2542	-0.4414
8.3122	-8.1328	971.87	1.8529	-1.2149	-0.4108
16.6244	0.9568	982.215	1.9272	-1.1799	-0.4283
7.7142	-8.6112	971.571	1.9184	-1.2061	-0.4588
15.3686	0.2392	980.242	1.984	-1.1755	-0.4632
6.7574	-9.867	972.348	1.9446	-1.1974	-0.402
18.0596	-1.6146	982.992	1.9097	-1.2149	-0.472
6.0996	-7.0564	971.032	1.7961	-1.1886	-0.4588
15.7872	-3.1694	982.574	1.9534	-1.2149	-0.4545
5.5016	-6.3986	970.195	1.8966	-1.2061	-0.4676
16.3852	-2.3322	980.84	1.9315	-1.2192	-0.4632
6.6378	-4.0066	975.099	1.8966	-1.1624	-0.4807
13.5746	-7.176	977.072	1.8878	-1.2367	-0.4326
9.269	-3.887	975.039	1.949	-1.228	-0.4283
14.4118	-6.3986	975.936	1.984	-1.1843	-0.4195
11.661	-1.3754	979.464	1.9315	-1.2192	-0.4326
9.867	-7.5348	974.262	1.8704	-1.1799	-0.4414
11.661	-0.7774	979.703	1.949	-1.228	-0.4501
9.0298	-8.97	972.527	1.8966	-1.1974	-0.3933
14.5912	0.7176	979.105	1.9359	-1.1886	-0.402
9.0298	-9.9866	971.391	1.9359	-1.2236	-0.4239
17.5214	-0.1794	983.65	1.9315	-1.1974	-0.4982
5.98	-8.1328	971.451	1.8616	-1.1318	-0.4151
15.3686	-0.897	983.949	1.9665	-1.1406	-0.4239
4.9036	-8.0132	969.597	1.8791	-1.1755	-0.4545
17.94	-0.897	981.497	1.9228	-1.1886	-0.4326
6.279	-5.9202	971.81	1.9053	-1.1406	-0.4239
16.3852	-4.5448	981.976	1.9315	-1.1886	-0.4807
5.8604	-4.9036	973.006	1.9184	-1.193	-0.4457
15.548	-4.5448	979.404	1.9621	-1.2061	-0.4457
8.5514	-3.7076	974.202	1.9097	-1.2323	-0.4545
13.0364	-5.4418	976.115	1.9228	-1.193	-0.4457
11.6012	-2.1528	978.448	1.9228	-1.1668	-0.4151
12.259	-7.8936	977.132	1.9053	-1.1624	-0.4239
10.764	-0.0598	976.295	1.8922	-1.2367	-0.4283
9.3886	-10.3454	972.348	1.8922	-1.1755	-0.4151
15.3686	-0.897	981.198	1.9272	-1.2542	-0.4457
9.9268	-8.1328	971.511	1.8267	-1.2017	-0.402
15.7274	0.2392	983.112	1.9927	-1.2105	-0.4239
6.6378	-8.9102	970.733	1.9315	-1.1974	-0.4457
15.6676	-0.2392	982.095	1.949	-1.1886	-0.4108
6.5182	-7.774	972.587	1.8704	-1.1537	-0.4064
17.1028	-2.5714	980.959	1.8704	-1.2105	-0.4938
7.2358	-6.279	971.81	1.8747	-1.1581	-0.4676
17.8204	-2.9302	982.574	1.9141	-1.1712	-0.4414
6.6378	-5.8604	972.408	1.8747	-1.1187	-0.4195
14.8304	-4.0066	979.823	1.9141	-1.1755	-0.3977
8.372	-4.0664	974.441	1.8878	-1.1318	-0.4501
14.95	-5.5016	978.448	1.8835	-1.1668	-0.472
8.671	-1.0764	974.262	1.9184	-1.1799	-0.4239
11.3022	-7.9534	973.723	1.9665	-1.1668	-0.4239
12.7972	-0.897	981.139	1.9403	-1.193	-0.437
10.7042	-8.1328	974.441	1.8878	-1.1974	-0.4588
12.3786	0.1196	981.258	1.9709	-1.2149	-0.4414
8.372	-8.372	971.391	1.8747	-1.1712	-0.4588
15.1892	1.0166	980.361	1.9534	-1.2149	-0.4632
7.3554	-7.774	973.185	1.9009	-1.193	-0.4501
15.7872	-0.897	980.6	1.9141	-1.1886	-0.4676
6.1594	-9.6278	971.451	1.866	-1.1799	-0.4501
18.3586	-1.495	982.813	1.9534	-1.2017	-0.4501
7.7142	-7.4152	971.331	1.8922	-1.1974	-0.4763
16.5646	-1.495	982.454	1.9184	-1.2673	-0.4545
4.5448	-5.98	971.69	1.8747	-1.1843	-0.4326
16.744	-4.5448	980.541	1.9272	-1.1624	-0.4326
6.3388	-3.2292	973.305	1.8791	-1.1581	-0.4676
13.5148	-5.6212	976.295	1.9315	-1.1581	-0.5069
10.764	-3.1694	977.79	1.9665	-1.2454	-0.437
12.4982	-5.9202	974.262	1.9315	-1.2105	-0.4108
10.5846	-1.3156	980.959	1.9184	-1.228	-0.4239
10.166	-9.0298	973.066	1.8223	-1.2061	-0.437
13.3952	0.2392	978.687	1.9665	-1.2323	-0.4807
9.9268	-8.0132	974.142	1.9097	-1.193	-0.472
14.7706	0	979.285	1.9403	-1.2149	-0.4108
8.0132	-9.3886	971.989	1.9141	-1.193	-0.4283
15.7872	0	983.65	1.9796	-1.1668	-0.4151
6.6378	-8.9102	970.076	1.8791	-1.1843	-0.4151
17.043	-1.1362	981.856	1.9097	-1.2586	-0.4676
5.3222	-7.0564	970.733	1.8878	-1.1886	-0.4457
17.4018	-1.6146	982.634	1.9446	-1.2629	-0.4632
4.784	-5.0232	971.87	1.9141	-1.2105	-0.4588
15.7274	-5.8006	980.301	1.984	-1.1755	-0.437
7.9534	-5.1428	973.424	1.9097	-1.1886	-0.4414
16.0264	-3.1694	977.252	1.9097	-1.1624	-0.4457
16.0264	-3.2292	977.192	1.9315	-1.1624	-0.4326
9.8072	-6.8172	974.919	1.9053	-1.1187	-0.4414
12.6776	-6.8172	977.85	1.9053	-1.1712	-0.472
8.372	-1.4352	976.056	1.9403	-1.1755	-0.4676
11.7806	-8.97	977.012	1.9141	-1.1624	-0.4326
13.9932	0.4784	977.012	1.9053	-1.1537	-0.4545
8.5514	-8.2524	973.664	1.9578	-1.2367	-0.4807
15.0696	0.0598	981.139	1.9053	-1.1712	-0.4763
9.0298	-9.4484	973.664	1.9184	-1.1799	-0.4457
13.3354	0.7176	981.079	1.8791	-1.1886	-0.4545
6.578	-9.3288	969.896	1.9665	-1.2105	-0.4588
18.0596	-1.5548	983.052	1.9228	-1.1668	-0.4545
5.5016	-5.1428	970.554	1.9578	-1.2105	-0.4632
17.2224	-1.6146	982.095	1.9446	-1.1799	-0.437
6.9966	-8.0132	973.125	1.9315	-1.2411	-0.4414
16.9234	-2.691	980.002	1.9053	-1.1886	-0.4195
6.2192	-5.382	974.441	1.9359	-1.2192	-0.472
15.1892	-4.0664	977.371	1.8835	-1.2367	-0.4326
8.5514	-3.289	974.561	1.949	-1.2367	-0.4457
13.9334	-6.3388	978.507	1.9315	-1.1974	-0.4676
7.774	-2.7508	975.458	1.9184	-1.1886	-0.4108
12.1992	-8.671	974.561	1.9796	-1.1799	-0.4195
11.6012	-1.0764	978.567	1.9796	-1.193	-0.4239
11.2424	-7.7142	973.424	1.9009	-1.2149	-0.4064
14.2922	0.3588	980.959	1.9446	-1.2149	-0.4414
6.6378	-8.1328	973.006	1.8747	-1.1843	-0.437
14.1128	0.3588	981.258	1.8966	-1.1974	-0.437
8.8504	-8.073	972.527	1.8966	-1.193	-0.437
16.5048	0.8372	981.378	1.9709	-1.1755	-0.4457
6.0996	-8.7308	971.63	1.9272	-1.1974	-0.437
17.4616	-0.6578	982.275	1.9534	-1.2367	-0.3977
6.279	-6.6976	971.75	1.9009	-1.1712	-0.4501
16.6842	-3.5282	981.976	1.9228	-1.2149	-0.4326
5.2624	-5.5016	970.315	1.8791	-1.2017	-0.3933
16.9234	-3.7674	979.464	1.9446	-1.228	-0.4283
8.6112	-4.9634	975.039	1.866	-1.2105	-0.4501
13.9334	-5.6212	976.295	1.9228	-1.2105	-0.4457
9.0896	-4.0066	978.866	1.9403	-1.193	-0.4195
13.9932	-8.4318	975.697	1.8835	-1.1449	-0.4632
10.166	-1.0166	976.953	1.8922	-1.2236	-0.4283
10.465	-8.0132	973.664	1.9053	-1.2017	-0.4545
14.5912	-0.5382	979.584	1.8878	-1.193	-0.4676
7.774	-7.5946	972.527	1.8966	-1.1843	-0.4632
13.6942	0.7774	981.916	1.9053	-1.1843	-0.4414
8.4916	-10.2258	971.152	1.9184	-1.1537	-0.4457
16.2656	1.196	982.873	1.9446	-1.2192	-0.4545
8.7308	-7.4152	970.973	1.8791	-1.193	-0.4676
17.342	-0.3588	983.889	1.9359	-1.2105	-0.4501
4.3056	-7.3554	969.238	1.8835	-1.1755	-0.4326
17.2224	-2.2126	982.574	1.9359	-1.1493	-0.4195
5.98	-6.0398	971.152	1.8529	-1.1537	-0.4239
16.8636	-3.8272	978.567	1.9053	-1.1886	-0.437
7.8338	-4.8438	974.68	1.9184	-1.1799	-0.4151
16.0862	-5.4418	978.986	1.9359	-1.2192	-0.3889
7.2358	-3.7076	975.876	1.9272	-1.1668	-0.4108
12.0796	-6.0398	976.534	1.9403	-1.1755	-0.4545
11.1228	-3.0498	976.235	1.9272	-1.1668	-0.4501
12.1394	-5.8604	976.414	1.9359	-1.2017	-0.4151
11.6012	-0.9568	977.491	1.9228	-1.1974	-0.4501
10.0464	-9.867	975.278	1.9272	-1.193	-0.4763
13.9334	0.0598	981.378	1.9665	-1.2367	-0.4588
8.8504	-9.867	971.391	1.9141	-1.1493	-0.4283
15.548	0.4186	982.394	1.9578	-1.2061	-0.3889
6.279	-8.3122	967.564	1.8704	-1.2105	-0.4414
17.8204	0.4186	984.428	1.984	-1.2105	-0.4545
5.9202	-8.2524	971.571	1.831	-1.1624	-0.4457
15.0696	-2.7508	980.959	1.9446	-1.1624	-0.437
4.9036	-7.176	973.185	1.9315	-1.0969	-0.4239
19.136	-3.8272	981.617	1.9534	-1.1799	-0.4283
5.7408	-3.7076	973.424	1.9053	-1.1799	-0.4414
13.9932	-3.289	979.345	1.9184	-1.193	-0.4064
7.5946	-4.0664	973.125	1.9446	-1.1886	-0.4763
14.1726	-4.6046	978.806	1.9097	-1.1843	-0.472
9.6876	-2.1528	975.218	1.9315	-1.1449	-0.4457
13.0962	-7.8338	975.996	1.949	-1.1493	-0.4632
12.4384	-0.9568	978.328	1.9534	-1.2017	-0.4108
10.2856	-8.97	973.544	1.8835	-1.1449	-0.4326
12.7374	-1.1362	981.916	1.9534	-1.1843	-0.4414
7.8338	-9.8072	970.135	1.8223	-1.1493	-0.5025
15.3088	0.4784	982.933	1.9184	-1.2017	-0.4894
7.8338	-8.372	970.913	1.8835	-1.1843	-0.472
16.3254	-0.2392	981.497	1.9359	-1.2498	-0.4326
6.0398	-9.0298	971.75	1.8966	-1.1712	-0.4195
17.8802	-2.1528	983.052	1.9883	-1.1799	-0.4195
6.0996	-7.0564	971.87	1.9097	-1.193	-0.4239
15.9068	-2.2126	980.899	1.9578	-1.228	-0.4545
6.0398	-6.0398	970.853	1.9009	-1.2192	-0.4588
16.5048	-2.8704	981.198	1.9621	-1.2411	-0.4851
6.578	-3.588	973.424	1.9403	-1.1624	-0.4676
14.1726	-6.2192	978.747	1.9534	-1.1581	-0.4283
10.1062	-3.2292	975.099	1.8572	-1.1799	-0.4239
14.2922	-6.0996	976.594	1.8966	-1.2236	-0.437
12.3188	-0.897	979.883	1.9315	-1.2498	-0.4283
10.166	-7.176	972.826	1.8529	-1.2061	-0.4108
12.0198	-0.4784	981.139	1.949	-1.2149	-0.4064
8.1926	-8.6112	972.767	1.9315	-1.1624	-0.4414
14.1726	0.8372	979.285	1.9053	-1.228	-0.4414
7.6544	-9.6876	971.571	1.8922	-1.2105	-0.472
17.4018	-1.0166	982.394	1.9403	-1.2542	-0.437
5.8604	-9.0298	971.331	1.9009	-1.1843	-0.4108
15.0696	-1.6744	983.291	1.9403	-1.2236	-0.4414
5.4418	-8.372	970.315	1.866	-1.1449	-0.4326
18.0596	-1.7342	982.574	1.9534	-1.1843	-0.4283
6.578	-4.9036	970.973	1.8747	-1.1974	-0.4064
16.3254	-4.9634	981.617	1.9578	-1.1799	-0.4501
6.7574	-5.2624	972.707	1.9446	-1.1624	-0.4588
15.3088	-4.5448	978.627	1.9621	-1.1712	-0.4632
9.3288	-3.4086	975.936	1.8835	-1.2236	-0.4632
12.6178	-5.1428	975.039	1.866	-1.1843	-0.4283
10.4052	-0.7176	978.029	1.9403	-1.1843	-0.472
11.1228	-7.6544	976.594	1.9053	-1.2149	-0.437
11.362	-1.1362	978.208	1.8878	-1.1843	-0.4588
9.4484	-9.6278	974.86	1.9709	-1.1843	-0.4283
15.847	-0.4784	981.557	1.949	-1.1755	-0.3977
8.8504	-9.2092	972.348	1.866	-1.2236	-0.4632
14.053	1.4352	981.557	1.9752	-1.2061	-0.4239
5.98	-9.3886	969.777	1.8704	-1.1712	-0.4982
17.2822	-0.299	982.992	1.9578	-1.2411	-0.4501
4.9036	-6.7574	971.272	1.866	-1.193	-0.4283
17.8204	-3.7674	980.481	1.9359	-1.1886	-0.4195
6.3986	-6.3388	972.288	1.8441	-1.1799	-0.402
17.641	-3.3488	980.541	1.9403	-1.2629	-0.3802
7.8936	-5.4418	974.501	1.8922	-1.1755	-0.4283
14.5912	-4.6046	977.67	1.8835	-1.1886	-0.4151
7.176	-4.485	974.381	1.9359	-1.1799	-0.4414
15.4284	-5.98	979.165	1.9228	-1.1231	-0.4632
10.0464	-1.9136	975.517	1.9053	-1.1886	-0.4414
11.96	-7.2358	976.175	1.9578	-1.1275	-0.4588
12.558	-1.8538	979.046	1.9359	-1.193	-0.4283
10.2258	-8.8504	973.963	1.8398	-1.1406	-0.4239
12.7374	0.7774	979.644	1.9534	-1.2236	-0.4064
8.4916	-8.97	970.674	1.8747	-1.2149	-0.4457
15.4284	0.8372	982.873	1.9752	-1.2149	-0.4414
6.4584	-8.073	971.331	1.8441	-1.193	-0.4326
15.3686	-2.093	981.976	1.949	-1.1668	-0.4283
5.5614	-8.8504	972.348	1.8878	-1.1712	-0.437
18.239	-0.7176	980.959	1.9315	-1.2192	-0.4807
6.9966	-6.4584	973.066	1.8966	-1.2454	-0.4894
16.445	-1.794	980.481	1.9141	-1.2454	-0.4414
4.5448	-5.2624	971.69	1.9272	-1.1712	-0.4676
16.6842	-4.2458	981.497	2.0233	-1.1537	-0.4763
6.6976	-4.1262	971.989	1.8966	-1.1799	-0.4151
15.0098	-5.2026	978.507	1.9359	-1.2498	-0.437
10.166	-4.0066	977.192	1.9883	-1.2323	-0.3933
13.9932	-6.6976	976.713	1.9578	-1.2236	-0.3758
9.568	-1.2558	979.165	1.9446	-1.1843	-0.437
10.6444	-9.0896	972.826	1.8704	-1.1624	-0.4545
12.7374	0.598	979.584	1.9534	-1.2061	-0.4982
9.7474	-7.0564	972.408	1.9228	-1.1493	-0.4588
14.5314	-0.2392	979.404	1.9665	-1.2323	-0.4851
7.2956	-9.4484	972.527	1.8878	-1.1712	-0.4676
15.4882	-1.2558	981.557	1.9796	-1.1843	-0.4501
7.0564	-8.6112	972.587	1.9228	-1.1624	-0.437
16.146	0.1196	980.959	1.9228	-1.2061	-0.4195
5.681	-7.1162	970.733	1.8791	-1.2192	-0.4239
18.3586	-1.0764	983.531	1.9621	-1.2105	-0.437
4.5448	-5.8006	970.913	1.8616	-1.1581	-0.4632
14.7706	-3.9468	980.361	1.9796	-1.2323	-0.4632
7.7142	-5.5016	974.441	1.9403	-1.1886	-0.4501
17.2822	-4.0066	978.687	1.949	-1.1886	-0.4326
8.8504	-2.093	976.355	1.9883	-1.2236	-0.4501
12.259	-6.6378	974.68	1.9141	-1.2017	-0.4632
10.2258	-1.9136	978.747	1.8966	-1.2061	-0.4326
11.1228	-7.3554	974.919	1.8747	-1.2061	-0.4326
12.9766	-1.0166	978.388	1.9272	-1.1886	-0.4108
10.0464	-9.0298	972.886	1.9315	-1.1755	-0.4545
14.1726	0.299	980.899	1.9359	-1.2323	-0.4195
9.2092	-10.1062	974.202	1.9141	-1.2017	-0.4064
14.651	-0.2392	981.617	1.9534	-1.1799	-0.4326
6.0996	-8.7308	970.793	1.8048	-1.1362	-0.4545
16.9832	-1.0764	983.052	1.9752	-1.1755	-0.4676
6.4584	-7.1162	970.913	1.8529	-1.1187	-0.3977
16.2058	-1.3156	980.84	1.9315	-1.1493	-0.4414
5.7408	-7.0564	972.348	1.9534	-1.1755	-0.4283
16.9832	-3.3488	980.182	1.9403	-1.2498	-0.4239
5.98	-4.6046	973.484	1.8922	-1.2017	-0.4195
15.249	-4.4252	978.328	1.9097	-1.1886	-0.4239
7.4152	-3.588	974.262	1.8922	-1.1755	-0.4807
14.651	-4.186	978.328	1.9534	-1.2105	-0.4588
9.7474	-3.3488	977.79	1.9184	-1.1231	-0.4457
11.7806	-8.073	974.919	1.8791	-1.1624	-0.4763
11.6012	-1.3754	978.149	1.949	-1.2061	-0.4501
11.96	-9.0896	974.321	1.9359	-1.2105	-0.4632
12.3786	1.3754	980.301	1.9709	-1.228	-0.3671
8.7906	-9.2092	972.109	1.8616	-1.2017	-0.4239
15.3088	-0.5382	982.215	1.9403	-1.2367	-0.4501
7.176	-9.0896	971.69	1.8572	-1.2236	-0.3802
15.9068	-0.3588	980.361	1.9184	-1.1493	-0.472
7.5348	-8.4318	972.587	1.9359	-1.1362	-0.4195
17.2224	-1.8538	982.036	1.9359	-1.228	-0.4239
4.7242	-6.7574	972.169	1.8878	-1.1755	-0.4414
15.9068	-3.4684	980.84	1.9272	-1.1712	-0.4676
5.8006	-6.0398	970.554	1.866	-1.1799	-0.4982
17.7606	-1.794	980.122	1.9709	-1.2367	-0.4763
7.5348	-4.9634	973.185	1.9359	-1.1755	-0.472
14.1726	-5.8604	977.67	1.9403	-1.228	-0.4632
8.671	-3.588	977.371	1.9315	-1.1755	-0.4763
14.053	-8.1926	977.192	1.8747	-1.1624	-0.4283
10.9434	-0.598	978.089	1.8966	-1.2017	-0.402
10.6444	-7.4152	971.75	1.8704	-1.2105	-0.4545
13.3354	0.3588	981.019	1.9446	-1.2629	-0.402
9.269	-8.7308	972.886	1.8485	-1.1624	-0.4064
13.3354	-0.299	980.421	1.9315	-1.1755	-0.472
7.5946	-9.867	971.81	1.9228	-1.1755	-0.4414
16.9234	-0.9568	981.497	1.9228	-1.2192	-0.3671
8.0132	-6.7574	971.69	1.9141	-1.1755	-0.437
16.445	0.1794	982.275	1.9315	-1.1799	-0.4326
4.0664	-8.5514	968.939	1.831	-1.1755	-0.437
16.9832	-2.0332	984.667	2.0058	-1.1712	-0.4283
6.9368	-6.8172	970.554	1.9315	-1.1406	-0.4501
16.445	-2.1528	980.541	1.9009	-1.1799	-0.4457
7.3554	-5.3222	972.647	1.8966	-1.1668	-0.4545
17.1028	-4.784	980.122	1.9272	-1.193	-0.4588
6.279	-3.7674	976.295	1.8485	-1.1799	-0.4632
11.063	-6.5182	975.099	1.8398	-1.1712	-0.4632
10.4052	-1.5548	977.431	1.9097	-1.1362	-0.4326
13.156	-7.2358	974.979	1.9184	-1.1362	-0.4763
10.8836	0.5382	977.551	1.9578	-1.1886	-0.4545
9.5082	-9.269	973.365	1.9709	-1.1231	-0.4545
14.8902	-2.2724	980.122	1.9184	-1.228	-0.4283
8.0132	-7.475	973.544	1.9097	-1.1843	-0.4283
15.6676	0.598	981.139	1.9403	-1.2061	-0.4239
7.9534	-9.0298	970.195	1.866	-1.2061	-0.4501
15.3686	2.5714	982.753	1.9796	-1.1712	-0.4501
7.774	-9.0298	971.571	1.8835	-1.1362	-0.472
16.9234	-2.4518	983.949	1.9446	-1.1712	-0.4938
3.5282	-6.877	968.282	1.9009	-1.1537	-0.4545
20.3918	-4.0664	982.155	1.9665	-1.1886	-0.4807
7.4152	-4.4252	974.022	1.8922	-1.2017	-0.4283
13.3952	-2.691	978.029	1.9009	-1.2498	-0.437
7.1162	-5.2026	975.816	1.9097	-1.2017	-0.4501
14.1128	-6.1594	976.893	1.949	-1.1843	-0.437
8.4318	-0.4784	975.637	1.9315	-1.2367	-0.4676
12.4384	-7.2956	976.474	1.9228	-1.1799	-0.4501
13.0962	-2.392	977.551	1.9665	-1.1493	-0.4064
9.9866	-8.073	974.86	1.9228	-1.1886	-0.4632
13.156	-0.598	979.763	1.9534	-1.1799	-0.4632
8.9102	-9.8072	971.75	1.8485	-1.1537	-0.5113
15.7872	1.4352	980.959	1.9709	-1.2367	-0.4982
8.1926	-9.4484	970.973	1.9359	-1.1755	-0.4851
15.4284	-0.9568	983.77	1.9752	-1.1974	-0.4283
6.2192	-8.7906	971.511	1.8878	-1.1449	-0.4195
18.3586	-1.3754	983.889	1.9621	-1.2149	-0.4108
6.0996	-7.5946	971.331	1.8441	-1.1493	-0.4283
16.8636	-1.9136	980.541	1.9184	-1.1974	-0.437
5.681	-6.279	972.468	1.9009	-1.1843	-0.4763
16.9832	-2.4518	980.481	1.9446	-1.1974	-0.4588
5.681	-3.7674	972.408	1.9184	-1.1668	-0.4195
13.754	-6.0398	979.046	1.9927	-1.1537	-0.4501
9.6278	-4.2458	973.783	1.8878	-1.2061	-0.4239
13.6942	-5.382	977.61	1.8878	-1.2411	-0.4588
10.5846	-0.5382	976.953	1.8835	-1.2105	-0.4151
10.5248	-8.1926	972.767	1.8616	-1.1843	-0.4064
11.661	0.1196	980.78	1.9009	-1.2017	-0.4064
8.4318	-8.073	973.723	1.8791	-1.1712	-0.4414
15.3686	-0.3588	979.404	1.9709	-1.2411	-0.4851
8.9102	-9.0896	972.826	1.9228	-1.1537	-0.4851
16.2656	0.2392	982.454	1.9621	-1.1755	-0.437
8.2524	-8.97	973.544	1.9053	-1.2149	-0.4457
15.3686	-0.4784	982.155	1.9053	-1.193	-0.4501
5.5016	-7.475	968.939	1.8223	-1.1449	-0.4283
18.7174	-2.2724	983.531	1.9228	-1.2017	-0.4588
6.0398	-6.0398	969.478	1.8529	-1.1581	-0.5025
16.0264	-3.2292	980.84	1.9578	-1.1843	-0.4851
5.98	-6.7574	973.664	1.8704	-1.1712	-0.4501
16.6244	-4.784	979.823	1.9097	-1.2061	-0.4414
8.073	-2.6312	975.876	1.9403	-1.1581	-0.4676
12.1394	-6.578	976.295	1.8835	-1.1624	-0.4763
10.2258	-1.3754	976.654	1.9796	-1.2367	-0.4545
11.4218	-6.4584	976.235	1.9709	-1.1843	-0.4283
10.2856	-0.4186	978.388	1.9446	-1.2192	-0.4064
8.9102	-9.0298	973.783	1.9184	-1.1231	-0.4151
14.1726	-1.1362	980.242	1.9446	-1.2105	-0.4239
9.9268	-8.073	973.365	1.9097	-1.2367	-0.4414
15.1294	1.495	980.301	1.9053	-1.2323	-0.3889
6.877	-9.5082	971.032	1.866	-1.1449	-0.4632
17.1028	-1.0166	983.59	1.9883	-1.1755	-0.437
5.7408	-8.1328	970.913	1.8616	-1.1886	-0.3933
17.4616	-0.8372	982.036	1.9752	-1.1974	-0.4545
6.7574	-6.9368	971.75	1.9228	-1.2192	-0.4326
17.7606	-2.9302	982.933	1.9578	-1.2149	-0.437
5.382	-5.083	974.501	1.8922	-1.1493	-0.4676
14.4716	-5.0232	977.192	1.8572	-1.1974	-0.4545
6.877	-2.99	973.723	1.8966	-1.1886	-0.4414
14.8304	-5.0232	977.85	1.9053	-1.1799	-0.472
10.0464	-2.8106	975.458	1.866	-1.1755	-0.4588
10.764	-7.5348	976.175	1.9621	-1.1712	-0.4676
11.063	-2.4518	976.773	1.9446	-1.1755	-0.4151
11.4218	-8.4916	974.86	1.9621	-1.1668	-0.4151
13.3952	0.4784	978.806	1.9272	-1.2454	-0.4151
9.3886	-8.4916	972.408	1.8835	-1.2017	-0.3977
16.9234	0.4186	984.009	1.9971	-1.2411	-0.4588
7.475	-8.4916	971.63	1.9009	-1.2105	-0.4283
15.3686	-0.598	982.454	1.9971	-1.1799	-0.437
6.578	-9.8072	970.913	1.9141	-1.1668	-0.4501
18.837	-0.4186	982.095	1.9621	-1.2586	-0.4588
6.8172	-5.98	972.707	1.8966	-1.2061	-0.4414
16.2656	-1.495	980.421	1.8835	-1.1886	-0.4326
3.9468	-5.083	972.288	1.8485	-1.2149	-0.4414
15.4284	-3.4684	979.883	1.9709	-1.1755	-0.4501
7.0564	-4.784	974.381	1.9272	-1.1843	-0.3977
15.0098	-4.6644	977.072	1.9272	-1.1755	-0.3977
9.7474	-3.9468	975.278	1.9446	-1.1624	-0.4239
13.5148	-6.6976	978.866	1.9272	-1.2149	-0.4414
9.269	-1.0764	976.355	1.8878	-1.2367	-0.4676
9.9866	-7.5946	973.365	1.8791	-1.1537	-0.4108
13.3354	0.3588	979.703	1.949	-1.2192	-0.4501
11.3022	-8.0132	972.647	1.8791	-1.1799	-0.4414
14.352	-0.1196	982.036	1.9752	-1.2192	-0.4283
7.2956	-10.166	971.75	1.9053	-1.1712	-0.4064
16.0862	-0.6578	982.155	1.9359	-1.2498	-0.4239
6.9368	-8.0132	971.69	1.8835	-1.1799	-0.3933
15.9666	-0.4784	980.481	1.9141	-1.2105	-0.4151
6.5182	-6.6976	971.032	1.8135	-1.2192	-0.4632
18.3586	-1.495	983.052	1.9315	-1.2105	-0.4326
6.0398	-7.1162	971.989	1.8441	-1.1843	-0.3977
16.2058	-4.3654	979.883	1.9315	-1.1755	-0.4064
7.5348	-5.8604	973.843	1.9097	-1.1406	-0.4457
17.5812	-5.382	980.182	1.9184	-1.193	-0.4414
7.774	-2.093	975.278	1.8835	-1.193	-0.4283
11.8404	-6.0996	975.577	1.9009	-1.1843	-0.4239
9.2092	-1.9136	978.149	1.9315	-1.1974	-0.4283
11.1228	-6.5182	975.816	1.9097	-1.1581	-0.4108
11.661	0	977.67	1.9359	-1.1581	-0.4457
11.661	-8.2524	973.365	1.8835	-1.1886	-0.4457
10.2856	-0.3588	980.062	1.9141	-1.1799	-0.4151
14.7706	-0.3588	973.664	1.9446	-1.1755	-0.3846
9.7474	-7.774	980.84	1.9228	-1.2411	-0.4414
13.5148	0.299	971.092	1.831	-1.2454	-0.4501
5.7408	-8.7308	971.092	1.9403	-1.2149	-0.4283
17.7008	0.0598	983.351	1.866	-1.1537	-0.4239
8.1328	-8.7906	972.169	1.9578	-1.1755	-0.4457
17.043	-1.6744	981.258	1.8922	-1.1231	-0.4195
6.0398	-7.2956	972.767	1.9228	-1.2061	-0.4326
17.5812	-4.3056	981.497	1.9184	-1.1537	-0.437
5.98	-4.784	972.169	1.9403	-1.1712	-0.4457
15.3686	-4.485	977.431	1.9315	-1.1886	-0.3933
7.774	-4.0664	974.8	1.9359	-1.2017	-0.437
14.95	-5.681	977.79	1.984	-1.1624	-0.4676
9.3288	-3.7674	977.67	1.9272	-1.1581	-0.4457
11.6012	-8.1926	975.458	1.9403	-1.1624	-0.4326
12.0198	-1.4352	977.909	1.9752	-1.1843	-0.4195
12.9168	-6.9368	975.398	1.949	-1.1799	-0.4414
14.2922	0.2392	980.421	1.8572	-1.1799	-0.4326
7.3554	-8.5514	971.63	1.9578	-1.1581	-0.4064
14.053	1.794	982.873	1.9403	-1.1537	-0.4457
7.9534	-8.4916	971.75	1.9403	-1.193	-0.4457
15.9068	0.3588	981.557	1.9796	-1.1624	-0.4501
7.2956	-8.4916	970.375	1.8878	-1.228	-0.4414
17.4616	-2.5116	982.394	1.9403	-1.1886	-0.4283
4.9634	-6.279	971.929	1.9184	-1.1886	-0.4457
15.4284	-3.0498	979.823	1.8835	-1.193	-0.3933
5.1428	-5.9202	973.664	1.9009	-1.1537	-0.4807
17.1626	-2.99	978.627	1.9315	-1.2323	-0.4807
8.1926	-4.186	974.561	1.9184	-1.1886	-0.4326
14.2324	-5.9202	979.105	1.9272	-1.1843	-0.472
8.5514	-4.3654	974.68	1.9097	-1.193	-0.4457
13.6344	-6.0398	977.252	1.9141	-1.193	-0.4151
11.6012	-1.794	977.67	1.9228	-1.1799	-0.4676
11.96	-7.7142	973.305	1.8791	-1.1755	-0.4545
12.6776	0.897	980.899	1.9403	-1.2498	-0.4501
9.269	-9.269	972.109	1.8966	-1.2105	-0.4326
13.0962	0.5382	981.318	1.9534	-1.2017	-0.4283
7.774	-9.6876	970.733	1.9403	-1.1624	-0.4326
17.4616	-1.4352	982.813	1.9796	-1.1974	-0.4457
7.8936	-7.9534	971.81	1.8704	-1.228	-0.4414
15.0696	0.2392	981.019	1.8966	-1.1843	-0.4414
4.6046	-8.4916	971.511	1.8572	-1.1886	-0.437
16.445	-0.7774	981.617	1.9534	-1.2367	-0.4414
4.784	-6.2192	971.331	1.8572	-1.1493	-0.4108
17.2224	-3.6478	982.394	1.9403	-1.2061	-0.4283
7.5946	-5.3222	972.049	1.8354	-1.1624	-0.4239
16.3852	-4.0664	981.139	1.9709	-1.1843	-0.437
8.3122	-4.485	974.501	1.9578	-1.1799	-0.437
13.3952	-5.8006	975.637	1.9184	-1.2105	-0.4064
9.7474	-2.0332	978.328	1.949	-1.1843	-0.4064
13.5746	-7.1162	974.501	1.8835	-1.1843	-0.4851
11.3022	0.1794	978.567	1.9097	-1.2586	-0.4501
9.1494	-9.0896	971.63	1.8966	-1.1581	-0.4457
14.053	-1.6146	980.66	1.9272	-1.2017	-0.4239
9.6876	-9.3288	973.604	1.866	-1.2192	-0.4414
15.4284	1.3754	981.318	1.866	-1.2192	-0.4588
7.475	-9.2092	971.511	1.8835	-1.193	-0.4545
16.9234	0.4186	982.634	1.9315	-1.2323	-0.4239
5.8604	-7.475	971.092	1.8747	-1.1537	-0.3933
16.3852	-1.4352	984.129	1.9971	-1.1493	-0.4545
6.0996	-7.774	969.238	1.8835	-1.1537	-0.4676
17.5214	-2.2126	983.172	1.9796	-1.1886	-0.4545
6.3986	-4.8438	972.348	1.8966	-1.1886	-0.4588
15.6676	-3.7076	978.507	1.8922	-1.2017	-0.4283
5.98	-4.3654	974.142	1.9709	-1.1537	-0.4632
15.4284	-5.6212	978.149	1.9228	-1.1668	-0.4851
9.3886	-2.2724	975.996	1.8835	-1.2017	-0.3846
11.96	-7.4152	973.903	1.9359	-1.1668	-0.4457
13.2756	-2.2126	979.345	1.949	-1.2236	-0.4195
12.0796	-8.0132	975.697	1.9446	-1.193	-0.4239
11.96	0.1196	980.242	1.9141	-1.2105	-0.437
8.372	-9.3288	972.288	1.9053	-1.1406	-0.4326
15.548	1.2558	980.78	1.9578	-1.2105	-0.4501
8.1328	-8.6112	971.511	1.8878	-1.1668	-0.5069
17.1028	-1.4352	983.77	1.9534	-1.1624	-0.437
6.578	-9.568	969.537	1.8485	-1.1362	-0.4151
18.1194	-2.1528	983.471	1.9534	-1.1799	-0.4239
7.2358	-7.774	970.554	1.8704	-1.1362	-0.4283
16.6842	-2.392	980.301	1.8835	-1.2323	-0.4239
5.382	-4.9036	971.451	1.9228	-1.1755	-0.3889
16.146	-3.1694	980.72	1.9665	-1.193	-0.4588
6.5182	-4.3056	973.963	1.8966	-1.1668	-0.4151
13.455	-4.9036	978.388	1.9446	-1.1493	-0.4545
10.3454	-3.4086	977.431	1.9053	-1.1712	-0.402
14.8304	-5.8006	977.072	1.8616	-1.228	-0.4239
10.8836	0.5382	977.61	1.9534	-1.2236	-0.4982
10.0464	-8.2524	973.843	1.8835	-1.1624	-0.4588
12.1394	0.4186	979.464	1.9403	-1.2149	-0.4938
9.0896	-8.3122	972.288	1.8878	-1.1712	-0.4545
15.1294	0.2392	980.959	1.9446	-1.228	-0.4326
8.8504	-9.2092	971.152	1.9009	-1.1493	-0.4239
16.445	-1.0764	983.172	1.9272	-1.2105	-0.4151
6.7574	-9.2092	972.348	1.8441	-1.1799	-0.4414
16.2656	-2.0332	981.557	1.8704	-1.1843	-0.472
4.8438	-7.7142	970.195	1.8835	-1.1886	-0.472
18.4782	-1.794	982.813	1.984	-1.2367	-0.4239
6.9368	-5.8006	971.331	1.9315	-1.2149	-0.4283
16.8038	-2.8704	981.617	1.9665	-1.1974	-0.4326
6.578	-6.6976	972.647	1.9621	-1.1799	-0.4151
16.5646	-4.485	979.943	1.9315	-1.2017	-0.4239
7.774	-2.9302	973.723	1.9141	-1.2149	-0.4676
14.5912	-5.9202	976.175	1.9141	-1.1974	-0.472
10.465	-1.794	978.388	1.949	-1.2236	-0.4414
11.1228	-6.3388	974.919	1.949	-1.1843	-0.4545
10.8836	-0.4784	979.165	1.9796	-1.2192	-0.437
9.9268	-8.4916	973.006	1.8835	-1.1318	-0.4501
14.651	-0.1794	980.899	1.9403	-1.2236	-0.4501
9.8072	-8.4916	974.262	1.8922	-1.2061	-0.4151
14.2324	0.7176	979.763	1.9272	-1.228	-0.3977
6.0398	-7.7142	970.973	1.8791	-1.1712	-0.4545
16.6244	-0.4784	982.036	1.9796	-1.1843	-0.4195
6.4584	-7.774	971.511	1.8616	-1.1449	-0.4283
15.7872	-1.0764	982.933	1.9228	-1.1712	-0.4239
6.3986	-8.5514	969.777	1.9228	-1.1712	-0.4414
18.7772	-3.1096	983.351	1.949	-1.2804	-0.4195
5.98	-5.8006	970.733	1.8704	-1.2017	-0.3671
15.249	-5.6212	979.644	1.8878	-1.2236	-0.437
7.8338	-4.9634	973.125	1.8966	-1.2323	-0.4239
15.548	-5.1428	977.311	1.9359	-1.2149	-0.4283
10.5846	-3.2292	977.73	1.9709	-1.2149	-0.4326
12.4982	-7.1162	975.278	1.9578	-1.1449	-0.437
10.9434	-0.8372	977.909	1.9883	-1.1799	-0.472
12.259	-8.2524	978.328	1.9359	-1.1187	-0.4457
12.558	0.1196	978.388	1.8835	-1.2149	-0.4283
8.6112	-7.4152	972.049	1.8878	-1.193	-0.4588
15.3088	0.5382	980.84	1.9184	-1.1843	-0.472
6.8172	-8.073	970.554	1.8572	-1.1581	-0.4938
14.8304	-0.4784	981.438	1.949	-1.1799	-0.4763
6.3986	-10.0464	971.032	1.8485	-1.1275	-0.4676
17.342	-1.3754	981.378	1.9534	-1.2673	-0.4195
6.877	-6.279	971.451	1.8835	-1.2323	-0.4501
17.2822	-2.6312	982.753	1.9578	-1.2323	-0.4545
5.2624	-6.0398	972.587	1.9053	-1.2454	-0.4151
15.4284	-2.5116	980.78	1.9534	-1.193	-0.4108
7.9534	-4.186	973.245	1.8529	-1.1712	-0.437
16.2656	-5.2026	977.909	1.8922	-1.193	-0.4239
9.5082	-2.3322	975.757	1.9141	-1.228	-0.4326
14.352	-7.7142	977.132	1.8966	-1.2149	-0.4545
9.867	-2.8106	977.132	1.8572	-1.1843	-0.4239
10.3454	-7.1162	972.946	1.8572	-1.1624	-0.4632
13.5746	-0.299	980.062	1.9272	-1.1799	-0.4414
10.9434	-8.7308	972.707	1.8922	-1.2542	-0.3933
13.2756	1.495	979.584	2.0058	-1.2017	-0.4763
7.774	-10.5248	973.843	1.9184	-1.1843	-0.4763
15.6676	-0.2392	982.933	1.949	-1.1799	-0.4588
6.5182	-7.5946	971.511	1.8747	-1.1406	-0.4676
17.2822	-0.4186	982.514	1.9053	-1.193	-0.4501
5.2624	-6.9368	970.554	1.8616	-1.2236	-0.4064
17.7606	-0.4186	983.351	1.9272	-1.1886	-0.4588
5.1428	-5.98	971.929	1.9141	-1.1755	-0.4676
15.548	-3.6478	979.345	1.9359	-1.2105	-0.437
7.8338	-6.8172	972.587	1.9053	-1.1799	-0.4676
17.043	-4.3654	979.584	1.8966	-1.2061	-0.4851
7.8936	-3.1096	973.424	1.866	-1.2236	-0.437
13.9932	-6.3986	976.355	1.9446	-1.1843	-0.4807
8.7308	-2.1528	978.747	1.9053	-1.2061	-0.4676
11.6012	-7.5348	973.066	1.9009	-1.2149	-0.4501
12.6178	-0.8372	978.806	1.9534	-1.2192	-0.472
10.8238	-9.3288	974.381	1.9184	-1.1755	-0.4501
14.8304	-0.3588	980.361	1.984	-1.2149	-0.4108
8.671	-8.2524	975.159	1.9228	-1.1755	-0.4632
13.754	-0.897	980.002	1.9709	-1.2105	-0.4326
6.7574	-7.8936	970.195	1.8791	-1.1755	-0.4763
17.94	-0.2392	984.248	1.9228	-1.193	-0.4283
6.578	-7.3554	970.076	1.9053	-1.1362	-0.4676
16.3254	-1.1362	981.796	1.9927	-1.2149	-0.4588
5.9202	-8.671	971.391	1.9578	-1.2105	-0.4064
18.4782	-2.5116	981.617	1.9709	-1.2323	-0.4676
7.176	-5.0232	972.647	1.8354	-1.1799	-0.4588
14.7108	-2.9302	978.149	1.8791	-1.1974	-0.4151
6.7574	-2.8106	974.262	1.9578	-1.2105	-0.4239
16.0862	-5.681	977.431	1.9228	-1.2367	-0.437
8.372	-0.9568	977.491	1.9534	-1.2149	-0.4195
11.1826	-8.6112	974.86	1.9009	-1.1231	-0.4588
12.0198	-2.3322	977.491	1.9009	-1.2061	-0.4632
11.4218	-7.2956	975.278	1.9009	-1.193	-0.4414
13.8138	-0.4186	979.464	1.9534	-1.1886	-0.4501
8.4318	-8.8504	971.63	1.8835	-1.2411	-0.437
13.6344	0.6578	980.301	1.9534	-1.2367	-0.4239
8.2524	-9.9268	971.989	1.9272	-1.1843	-0.4632
16.5048	0.4186	981.796	1.9883	-1.2411	-0.472
7.6544	-8.7906	969.717	1.9403	-1.1886	-0.5025
18.3586	-1.9136	984.727	2.0058	-1.228	-0.472
5.9202	-7.4152	971.87	1.8791	-1.1712	-0.4195
15.7872	-1.9734	980.84	1.9621	-1.2061	-0.4501
5.1428	-5.8006	972.288	1.9141	-1.1843	-0.4676
17.5812	-2.99	978.747	1.9228	-1.1886	-0.4676
6.4584	-2.99	974.561	1.949	-1.2236	-0.4545
14.4118	-5.7408	977.371	1.9665	-1.1755	-0.4501
8.671	-4.2458	975.697	1.9184	-1.193	-0.4545
13.9334	-5.681	977.67	1.8922	-1.1581	-0.4676
10.3454	-1.8538	976.474	1.8704	-1.1799	-0.4414
11.4218	-7.176	974.321	1.866	-1.1755	-0.437
11.96	1.3156	979.105	1.9709	-1.2236	-0.4457
10.764	-8.5514	974.62	1.9752	-1.1799	-0.4632
13.9932	0.0598	981.916	1.949	-1.2192	-0.402
7.774	-10.2856	970.434	1.8616	-1.1624	-0.4326
15.7274	-1.196	983.65	1.9883	-1.2017	-0.437
8.7906	-9.3288	970.195	1.8835	-1.1624	-0.3758
14.7108	0.4186	981.318	1.9315	-1.2017	-0.4064
4.3056	-8.4916	970.733	1.9053	-1.1974	-0.4108
16.8038	-1.9136	981.497	1.9228	-1.2454	-0.4545
4.8438	-5.5614	971.451	1.8922	-1.2323	-0.4588
18.3586	-2.5714	980.78	1.9403	-1.1712	-0.4763
7.475	-4.9634	973.245	1.9184	-1.1974	-0.4151
15.7872	-3.1694	981.258	1.9971	-1.2105	-0.4326
6.9368	-3.289	975.218	1.9534	-1.1974	-0.4195
13.3354	-6.3986	977.551	1.9141	-1.193	-0.4108
10.2258	-0.299	975.996	1.9141	-1.1406	-0.4195
13.5148	-6.6378	976.295	1.9141	-1.1624	-0.4414
12.1394	-1.1362	978.448	1.8791	-1.1974	-0.4239
9.4484	-9.0298	973.006	1.8747	-1.1406	-0.4283
13.6344	-0.7176	981.258	1.9621	-1.1843	-0.4763
9.4484	-8.8504	971.272	1.8572	-1.1886	-0.4283
14.1128	0.7774	980.72	1.9272	-1.2149	-0.4283
7.176	-8.372	970.733	1.9097	-1.1755	-0.4501
16.445	0.4186	982.514	1.949	-1.2586	-0.3889
5.083	-7.9534	971.69	1.9053	-1.2542	-0.4326
16.0862	-2.6312	982.992	1.9578	-1.1493	-0.4326
6.0398	-8.4916	971.331	1.8966	-1.1362	-0.4326
18.4184	-2.0332	981.796	1.9578	-1.2105	-0.4545
6.877	-5.1428	972.587	1.9359	-1.2017	-0.4457
15.847	-4.5448	979.464	1.9272	-1.228	-0.4588
5.9202	-3.4684	973.664	1.9272	-1.193	-0.4283
14.4716	-6.0996	978.208	1.9446	-1.1843	-0.4632
10.5248	-2.6312	975.039	1.9097	-1.2149	-0.3977
12.9168	-5.8604	975.218	1.9709	-1.1712	-0.437
13.5148	-1.3754	978.866	1.9665	-1.2017	-0.4501
11.7806	-7.7142	975.577	1.8922	-1.1843	-0.4894
11.1228	0.3588	979.524	1.8747	-1.1755	-0.4807
8.7308	-8.671	973.185	1.8747	-1.1886	-0.4676
15.9666	1.1362	981.079	1.9359	-1.2236	-0.472
7.8936	-8.372	971.69	1.8441	-1.1755	-0.4283
15.548	-0.7176	981.916	1.9446	-1.1668	-0.4414
6.0996	-10.6444	970.554	1.866	-1.1712	-0.4195
16.6842	-1.2558	982.514	1.949	-1.1799	-0.4676
5.5614	-7.8338	971.391	1.8747	-1.1275	-0.4195
16.8636	-3.289	979.943	1.9272	-1.2454	-0.4064
4.3056	-5.0232	970.375	1.9403	-1.1974	-0.4414
17.043	-3.4684	981.258	1.9534	-1.193	-0.4283
6.578	-4.6046	974.202	1.9315	-1.1537	-0.402
13.3952	-5.2026	977.61	1.9446	-1.1712	-0.3933
9.9866	-3.7674	975.577	1.9141	-1.1668	-0.4064
14.7108	-5.8006	978.806	1.8747	-1.2149	-0.4064
11.1228	-0.4784	977.012	1.8878	-1.2323	-0.3977
10.7042	-6.578	975.637	1.8835	-1.1843	-0.4283
13.156	-0.3588	979.763	1.9228	-1.2498	-0.4501
10.465	-7.5946	974.321	1.8791	-1.2192	-0.4326
14.7108	0.7176	980.541	1.9621	-1.1886	-0.437
9.8072	-9.867	970.853	1.8835	-1.2017	-0.4195
16.5048	0.1794	983.172	1.9796	-1.2367	-0.402
6.877	-9.9866	971.75	1.9009	-1.1668	-0.4326
15.3088	-2.3322	981.198	1.8966	-1.2061	-0.4545
3.7076	-7.6544	968.76	1.866	-1.1974	-0.4457
17.8802	-1.495	981.497	1.9709	-1.228	-0.472
6.877	-6.0996	972.408	1.9315	-1.2149	-0.4501
15.249	-2.4518	980.182	1.9446	-1.1755	-0.4588
6.0996	-6.6378	973.903	1.9097	-1.1581	-0.4501
16.2656	-4.3654	981.976	1.9403	-1.2192	-0.4938
7.5946	-3.1694	973.365	1.8747	-1.2192	-0.437
14.352	-5.2026	977.67	1.9184	-1.1581	-0.4632
10.5248	-1.6744	974.561	1.9228	-1.2017	-0.4501
12.6178	-5.8006	975.757	1.9009	-1.1843	-0.472
12.1394	-1.0166	978.507	1.9141	-1.1755	-0.4588
10.3454	-10.0464	972.886	1.8572	-1.1187	-0.4588
14.2324	-0.3588	979.644	1.949	-1.228	-0.4457
9.9866	-8.9102	973.365	1.8791	-1.1712	-0.472
15.0098	0.1196	980.66	1.9315	-1.2061	-0.4195
6.0996	-8.6112	971.451	1.9403	-1.1843	-0.4151
15.7872	-0.1196	982.036	1.9796	-1.193	-0.4283
6.1594	-8.372	972.468	1.8791	-1.1712	-0.3933
16.146	-0.7774	981.258	1.9184	-1.2061	-0.437
7.1162	-7.5348	971.331	1.8529	-1.2017	-0.4414
18.6576	-2.2126	982.933	1.9578	-1.2323	-0.4894
5.382	-5.3222	971.451	1.866	-1.1755	-0.4632
15.4882	-4.2458	981.139	1.8922	-1.2411	-0.4283
6.877	-4.8438	972.468	1.8835	-1.1755	-0.4676
15.9666	-3.7076	977.909	1.9272	-1.1886	-0.4632
9.3886	-2.4518	975.218	1.9403	-1.1493	-0.4851
12.6178	-7.5946	975.278	1.9752	-1.1712	-0.4632
10.2258	-1.4352	978.747	1.9228	-1.1799	-0.437
11.362	-8.1926	974.86	1.8835	-1.193	-0.472
12.7374	-1.0166	978.448	1.9228	-1.2323	-0.4588
8.7308	-6.9368	973.245	1.8267	-1.1755	-0.4588
15.0098	0.7176	980.242	1.9709	-1.2017	-0.4501
7.475	-9.568	973.066	1.9053	-1.2149	-0.4414
14.4716	0.0598	980.002	1.9621	-1.193	-0.4414
6.279	-9.7474	972.527	1.949	-1.1799	-0.4501
18.4184	-1.4352	982.036	1.9621	-1.2892	-0.3977
6.3388	-6.6378	971.032	1.9097	-1.1799	-0.4501
16.2058	-2.7508	982.275	1.9927	-1.2367	-0.472
5.0232	-6.6378	972.468	1.9315	-1.2236	-0.4195
17.043	-3.588	981.378	1.8966	-1.2149	-0.4632
7.2956	-4.485	973.484	1.8791	-1.1668	-0.4501
15.9666	-5.1428	977.132	1.9009	-1.193	-0.4807
9.3886	-3.289	976.654	1.9315	-1.2061	-0.4414
14.95	-5.6212	977.431	1.9359	-1.1187	-0.4501
10.2856	-2.8106	977.969	1.8835	-1.2017	-0.4239
10.2258	-7.5348	974.321	1.8616	-1.1755	-0.4414
11.7806	-0.299	978.627	1.9665	-1.1886	-0.5069
11.7208	-8.6112	975.398	1.9009	-1.2498	-0.4807
13.0962	1.196	979.225	1.9578	-1.1974	-0.4588
8.1926	-10.5846	972.886	1.866	-1.1537	-0.4501
15.9068	-1.495	982.454	1.9709	-1.2411	-0.4676
7.176	-8.372	971.511	1.8267	-1.2017	-0.4457
16.8636	-0.6578	981.497	1.8922	-1.228	-0.472
5.681	-7.2956	969.657	1.8572	-1.2236	-0.4457
17.2224	-1.196	981.976	1.9315	-1.2454	-0.472
5.5614	-6.6378	973.903	1.9228	-1.1799	-0.4632
16.744	-3.588	980.062	1.9621	-1.2017	-0.4283
6.8172	-6.877	972.886	1.8878	-1.1886	-0.4414
16.2058	-3.8272	980.062	1.9403	-1.2017	-0.4501
8.1328	-4.6046	974.86	1.9053	-1.2236	-0.402
13.0962	-4.6644	976.414	1.8922	-1.1974	-0.4676
8.7906	-2.5116	977.252	1.9359	-1.1843	-0.4676
12.7972	-7.8936	975.876	1.9621	-1.1886	-0.4588
10.3454	-0.4784	978.627	1.9578	-1.1843	-0.4283
10.9434	-9.269	972.707	1.9403	-1.1406	-0.4283
15.1892	0.1196	981.497	1.9403	-1.2149	-0.4632
8.671	-7.8338	974.022	1.8835	-1.2192	-0.4457
12.9766	0.299	981.019	1.8835	-1.2192	-0.4588
5.6212	-8.372	972.288	1.8572	-1.1537	-0.4588
16.2656	0.7176	980.062	1.9315	-1.1712	-0.4632
16.2656	-7.2358	972.049	1.9359	-1.1712	-0.4414
7.2358	-1.6146	980.421	1.9665	-1.2061	-0.4195
17.1028	-1.6146	970.913	1.8704	-1.1755	-0.3846
5.2026	-8.8504	982.634	1.9403	-1.1493	-0.4239
17.7008	-3.0498	971.87	1.8791	-1.1886	-0.4283
7.1162	-7.176	971.87	1.9315	-1.2017	-0.4676
16.3254	-2.691	980.72	1.9272	-1.2017	-0.402
6.1594	-4.6046	972.767	1.9315	-1.2105	-0.4064
16.0264	-5.2624	980.002	1.9578	-1.2105	-0.4501
7.6544	-1.9734	976.115	1.9315	-1.1056	-0.4501
12.9168	-7.1162	974.561	1.949	-1.1449	-0.4676
11.7806	-2.8106	978.926	1.8704	-1.1712	-0.4414
12.7374	-6.9368	973.604	1.9403	-1.2454	-0.4588
11.9002	-0.1196	979.345	1.8791	-1.2017	-0.472
9.0298	-8.372	973.365	1.9403	-1.2061	-0.4588
13.9932	0.299	980.361	1.8747	-1.193	-0.4239
7.7142	-9.0298	973.006	1.9315	-1.228	-0.4326
15.9068	-0.1196	980.72	1.9097	-1.1886	-0.4064
7.176	-7.9534	971.212	1.9796	-1.2498	-0.3977
17.9998	-0.897	983.77	1.8835	-1.2367	-0.4283
6.877	-7.8936	971.69	1.9097	-1.2629	-0.4414
14.5912	-2.0332	981.677	1.9097	-1.2498	-0.4545
5.8006	-6.6378	971.571	1.8704	-1.1974	-0.4501
17.2224	-3.5282	980.122	1.9228	-1.2236	-0.4414
6.6976	-3.1096	973.664	1.9053	-1.2236	-0.437
14.651	-5.6212	976.953	1.8966	-1.1974	-0.5025
8.97	-4.5448	977.192	1.949	-1.1974	-0.4501
14.5912	-7.0564	976.893	1.9315	-1.2367	-0.4501
9.9268	-1.2558	977.85	1.9359	-1.1668	-0.4632
11.8404	-8.2524	973.365	1.8747	-1.1799	-0.4851
12.9766	0.0598	978.627	1.8966	-1.2105	-0.472
9.1494	-7.7142	973.903	1.9446	-1.1886	-0.4501
13.6344	-1.2558	981.856	1.9578	-1.2411	-0.437
7.5348	-9.9866	970.913	1.8791	-1.1755	-0.4195
15.249	1.4352	982.215	1.9971	-1.2454	-0.4239
7.774	-9.6278	970.973	1.866	-1.2323	-0.4545
16.5646	-0.7176	982.992	1.9621	-1.2498	-0.4326
4.186	-6.7574	970.494	1.8835	-1.1537	-0.3977
15.9666	-1.6744	982.813	1.9228	-1.1886	-0.437
5.1428	-7.4152	970.793	1.8966	-1.1799	-0.4064
16.5646	-2.093	980.421	1.9315	-1.1668	-0.4414
6.279	-5.4418	974.441	1.8966	-1.1799	-0.4588
18.1194	-4.9634	978.926	1.9097	-1.1799	-0.4414
6.9966	-4.784	975.996	1.8835	-1.1755	-0.472
12.6178	-6.877	976.773	1.9009	-1.1668	-0.4545
10.3454	-2.6312	974.86	1.8922	-1.2411	-0.4283
13.5148	-6.6976	975.816	1.9053	-1.1581	-0.4326
12.1992	-0.7774	979.046	1.9272	-1.1668	-0.4108
9.0896	-9.5082	973.365	1.8966	-1.1318	-0.402
12.7972	-0.7774	981.198	1.9403	-1.1755	-0.4588
9.867	-9.5082	971.571	1.8572	-1.1537	-0.4414
14.4716	0.9568	982.454	1.9403	-1.1974	-0.4632
7.6544	-8.671	970.076	1.866	-1.1537	-0.472
16.5048	0.7176	981.856	1.9621	-1.193	-0.4326
5.98	-7.5348	971.511	1.8747	-1.1974	-0.4326
16.445	-1.3156	982.454	1.9534	-1.1581	-0.4676
6.2192	-7.6544	971.69	1.9053	-1.1712	-0.4632
17.8802	-1.9136	981.139	1.9446	-1.2192	-0.4326
6.7574	-6.6378	972.707	1.866	-1.1755	-0.4632
15.7274	-3.2292	979.883	1.9228	-1.2323	-0.4326
5.5614	-4.485	972.228	1.9141	-1.1406	-0.4195
15.6078	-5.2026	979.345	1.9665	-1.1799	-0.4239
8.7308	-2.9302	974.501	1.9315	-1.1799	-0.4938
13.0962	-6.9368	975.338	1.8878	-1.1449	-0.4283
12.1992	-2.0332	979.823	1.9665	-1.1755	-0.3889
12.0198	-8.1926	974.74	1.9359	-1.1843	-0.4064
10.465	-0.8372	980.959	1.9359	-1.2454	-0.437
8.6112	-9.269	971.451	1.8922	-1.1886	-0.4545
15.9068	0.8372	980.6	1.984	-1.1668	-0.4807
8.1328	-7.5348	972.288	1.9053	-1.1843	-0.4326
14.2922	1.1362	980.541	1.9359	-1.193	-0.4283
8.1926	-11.362	971.929	1.8878	-1.1886	-0.437
17.2224	-0.7774	984.248	1.9534	-1.2149	-0.4894
6.0398	-7.2358	970.853	1.9141	-1.1449	-0.4501
18.2988	-2.4518	981.318	1.9621	-1.2149	-0.4545
4.0066	-5.4418	969.179	1.8922	-1.228	-0.472
16.9832	-3.1096	982.394	1.9796	-1.2105	-0.4851
6.578	-4.9036	973.604	1.8966	-1.1231	-0.4588
13.8138	-5.0232	977.73	1.8704	-1.1143	-0.4414
8.0132	-4.3056	974.86	1.9228	-1.1799	-0.472
14.8902	-6.0996	976.773	1.8791	-1.2017	-0.4851
10.3454	-1.9136	977.192	1.9097	-1.2542	-0.4239
10.2856	-6.9368	975.099	1.9272	-1.2061	-0.4545
11.7208	-1.4352	979.105	1.9796	-1.193	-0.4632
9.867	-7.774	973.604	1.866	-1.1974	-0.4676
13.6344	-0.0598	979.345	1.9272	-1.2367	-0.4632
9.9268	-10.6444	971.69	1.8966	-1.1581	-0.4457
16.5646	0.598	982.574	1.9578	-1.1886	-0.4763
6.6976	-8.7906	972.169	1.8485	-1.1755	-0.437
15.4284	-1.2558	983.83	1.9578	-1.2017	-0.4326
6.2192	-7.774	969.418	1.8529	-1.1974	-0.3889
17.8802	-1.0764	982.873	1.949	-1.2454	-0.437
6.6976	-6.0996	971.87	1.9228	-1.1843	-0.437
16.3254	-3.0498	980.84	1.9228	-1.1755	-0.4414
4.6046	-5.681	973.185	1.9403	-1.193	-0.3802
16.0862	-4.0664	980.301	1.9665	-1.1537	-0.437
7.9534	-4.7242	974.082	1.866	-1.1799	-0.4195
13.754	-4.3056	977.969	1.9403	-1.1755	-0.4108
9.568	-2.3322	976.355	1.9184	-1.2586	-0.4283
12.3786	-6.7574	977.132	1.9272	-1.2192	-0.402
9.9866	-0.4186	977.551	1.9053	-1.2192	-0.437
10.0464	-10.465	973.125	1.8835	-1.193	-0.4326
13.455	0.1196	980.182	1.9315	-1.1974	-0.402
10.1062	-8.1926	972.587	1.8616	-1.2061	-0.3802
15.7872	0.598	982.813	1.9534	-1.2542	-0.4588
5.8604	-7.6544	970.674	1.8529	-1.1755	-0.437
15.847	-1.3754	982.394	1.9403	-1.1493	-0.4807
6.4584	-7.8936	972.647	1.9272	-1.1406	-0.4414
16.9234	-0.897	982.155	1.9446	-1.2017	-0.4545
6.877	-7.475	970.733	1.9097	-1.1755	-0.4195
18.4184	-2.8704	982.574	1.9228	-1.1581	-0.4151
4.5448	-6.3986	971.451	1.831	-1.1493	-0.4239
13.9932	-3.7076	980.84	1.949	-1.1624	-0.4151
7.3554	-5.1428	972.348	1.9403	-1.1843	-0.4545
16.3254	-4.5448	978.149	1.949	-1.2323	-0.4676
9.1494	-2.392	975.876	1.9097	-1.1668	-0.4108
11.9002	-8.0132	976.295	1.9359	-1.1581	-0.4108
10.5248	-1.794	978.866	1.9315	-1.2105	-0.4239
11.6012	-7.6544	974.022	1.9184	-1.1406	-0.4414
12.857	0.4186	979.584	1.9621	-1.1799	-0.4326
9.1494	-7.475	972.527	1.8835	-1.1712	-0.4195
14.95	0.8372	979.823	1.9709	-1.1974	-0.472
8.073	-8.7906	975.218	1.9272	-1.1974	-0.4807
15.3686	-0.9568	979.644	1.9315	-1.1449	-0.4457
7.0564	-9.568	972.169	1.8878	-1.1449	-0.4676
18.239	-0.7774	982.933	1.9578	-1.2149	-0.4545
6.2192	-7.1162	970.494	1.8835	-1.1493	-0.4151
15.3686	-0.897	982.454	1.9621	-1.2149	-0.4501
5.3222	-7.5946	970.973	1.8922	-1.1318	-0.4676
17.641	-3.5282	982.813	1.9141	-1.1581	-0.4632
5.8604	-4.6046	972.886	1.8966	-1.1581	-0.472
16.445	-5.5016	976.713	1.9315	-1.1143	-0.4632
8.073	-3.289	976.534	1.9621	-1.2367	-0.3977
14.2324	-5.4418	976.295	1.9009	-1.2017	-0.4414
9.5082	-2.4518	977.969	1.9359	-1.1974	-0.4763
10.166	-7.0564	974.082	1.9184	-1.1799	-0.4851
13.2158	-0.299	977.73	1.9927	-1.2149	-0.4545
11.661	-7.774	975.757	1.9534	-1.228	-0.472
12.558	0.1196	979.225	1.9228	-1.2454	-0.437
8.0132	-10.0464	972.647	1.8878	-1.1799	-0.4457
16.744	-0.7176	982.933	1.9534	-1.1843	-0.4414
7.8338	-8.0132	971.152	1.8791	-1.2149	-0.4326
15.9666	-0.299	983.052	1.9359	-1.2149	-0.4501
6.279	-8.7308	969.238	1.8485	-1.1624	-0.4326
17.9998	-1.2558	982.215	1.9534	-1.228	-0.4326
4.9036	-6.279	969.657	1.8966	-1.1974	-0.4807
17.1028	-4.6644	981.258	1.9359	-1.1886	-0.4894
7.5348	-7.8338	974.441	1.9272	-1.2149	-0.4632
17.2224	-3.8272	979.464	1.9141	-1.2236	-0.437
8.0132	-4.186	975.458	1.9097	-1.193	-0.402
13.2158	-4.6046	975.637	1.8747	-1.193	-0.402
9.4484	-1.794	976.235	1.9578	-1.1799	-0.4501
13.9334	-7.3554	979.943	1.9446	-1.1449	-0.4894
10.5846	-1.196	975.996	1.8966	-1.1493	-0.4239
10.2258	-8.6112	972.826	1.9272	-1.1362	-0.4457
15.0098	-0.1196	981.019	1.9665	-1.1668	-0.4151
9.2092	-8.7906	972.109	1.8441	-1.2061	-0.402
13.2756	0.4784	982.454	1.9228	-1.2061	-0.3802
6.0398	-8.671	970.733	1.8485	-1.1362	-0.4632
16.8636	0.2392	981.677	1.9359	-1.2192	-0.4414
7.0564	-7.0564	970.076	1.9315	-1.1886	-0.4632
17.2822	-1.6146	982.634	1.9796	-1.1843	-0.4851
5.2624	-8.1926	971.81	1.866	-1.1886	-0.4283
17.1626	-2.3322	982.036	1.9141	-1.2717	-0.4588
6.279	-6.279	971.87	1.8878	-1.2323	-0.5025
15.7872	-3.4684	979.644	1.8835	-1.2192	-0.437
7.0564	-3.4684	973.125	1.9141	-1.1974	-0.3977
16.0862	-6.4584	979.644	1.9228	-1.2017	-0.4283
8.4318	-2.6312	974.979	1.9272	-1.1537	-0.3933
12.3786	-7.6544	974.919	1.9359	-1.1712	-0.4195
11.6012	-1.4352	978.747	1.9184	-1.1886	-0.4108
12.1394	-7.5348	973.185	1.8747	-1.2061	-0.472
12.6776	0.1794	980.899	1.9578	-1.1843	-0.437
8.4916	-8.671	973.604	1.8572	-1.1537	-0.4545
14.352	-0.1794	981.318	1.9141	-1.228	-0.4414
7.3554	-7.6544	970.554	1.8791	-1.1799	-0.437
16.0264	-0.3588	981.139	1.9403	-1.1712	-0.4414
7.5946	-9.7474	970.793	1.8922	-1.1712	-0.4632
17.4018	-0.598	984.966	1.984	-1.2323	-0.437
5.083	-8.1926	971.212	1.8922	-1.1668	-0.4151
16.0862	-1.7342	981.497	1.9097	-1.2149	-0.4326
4.1262	-5.8604	969.717	1.8966	-1.1668	-0.4545
18.1792	-3.0498	981.557	1.9971	-1.193	-0.4807
7.4152	-4.5448	973.783	1.8747	-1.1974	-0.4414
14.7706	-5.083	976.833	1.8835	-1.2149	-0.4283
9.2092	-3.9468	977.192	1.9009	-1.2323	-0.4588
14.8304	-6.877	976.115	1.8966	-1.2061	-0.4195
10.5846	-1.5548	978.149	1.9446	-1.2017	-0.4501
11.9002	-6.8172	973.604	1.9053	-1.2105	-0.4151
12.3188	-0.897	978.986	1.9272	-1.228	-0.4108
9.5082	-8.1926	975.218	1.9228	-1.1886	-0.4151
14.5314	0.1794	980.84	1.9621	-1.2061	-0.4108
8.4318	-11.1228	971.571	1.866	-1.1886	-0.4545
15.6676	0.8372	981.378	1.9578	-1.228	-0.4283
8.4916	-9.4484	969.777	1.8966	-1.1668	-0.437
16.2058	0.3588	983.71	1.9097	-1.2192	-0.4676
4.9036	-8.0132	969.238	1.8485	-1.228	-0.4588
17.5214	-1.9136	983.65	1.9927	-1.2149	-0.4588
5.2026	-6.3986	971.331	1.8616	-1.1799	-0.4894
16.744	-2.0332	980.122	1.9141	-1.1974	-0.4283
7.2956	-5.8604	974.082	1.9141	-1.228	-0.4151
17.2224	-3.588	978.986	1.9228	-1.2454	-0.4632
7.2956	-3.6478	974.979	1.8878	-1.2323	-0.4851
14.2324	-5.7408	978.328	1.9009	-1.1886	-0.4414
9.8072	-3.1096	975.159	1.9184	-1.2192	-0.4545
13.3354	-5.5016	976.534	1.9141	-1.1974	-0.4457
11.1228	-1.3754	976.773	1.9315	-1.1974	-0.4807
10.166	-8.9102	973.783	1.8704	-1.1668	-0.4763
12.9766	-0.598	980.78	1.9097	-1.2149	-0.4457
9.9866	-9.9866	971.929	1.8791	-1.1318	-0.4632
15.4882	0.299	981.856	1.9403	-1.2105	-0.4414
7.2358	-8.3122	970.195	1.8966	-1.2105	-0.4151
17.1626	0.4784	983.471	2.0626	-1.2017	-0.4588
5.98	-7.8338	971.391	1.8835	-1.1799	-0.4632
14.8304	-0.9568	980.84	1.9315	-1.1886	-0.4457
6.877	-8.3122	973.664	1.9534	-1.1755	-0.4326
18.6576	-2.2724	981.677	1.9359	-1.228	-0.4151
7.0564	-5.4418	970.793	1.9228	-1.193	-0.4151
15.6078	-3.0498	981.557	1.9709	-1.193	-0.4457
6.4584	-5.0232	972.109	1.8704	-1.1755	-0.437
15.6676	-4.784	979.644	1.8791	-1.2105	-0.4414
8.6112	-3.5282	973.305	1.9009	-1.1755	-0.4239
12.9168	-7.475	977.192	1.9228	-1.2017	-0.3758
11.7208	-1.495	978.149	1.9796	-1.2149	-0.4195
12.0796	-7.2358	975.996	1.8878	-1.1537	-0.4632
10.6444	-0.897	978.986	1.9141	-1.2017	-0.4588
7.7142	-8.4318	970.733	1.8529	-1.1581	-0.472
15.1892	0.2392	981.737	1.9665	-1.1624	-0.437
9.269	-8.97	972.049	1.9315	-1.1406	-0.472
14.7108	0.7176	981.258	1.9403	-1.1886	-0.3889
6.4584	-10.8238	972.826	1.8922	-1.1668	-0.4501
17.4018	-1.9136	983.291	1.9184	-1.1799	-0.4632
6.279	-7.4152	970.733	1.866	-1.2192	-0.4632
17.2224	-1.196	982.095	1.949	-1.2105	-0.4414
5.5614	-5.8006	969.298	1.8922	-1.1886	-0.4326
16.0264	-2.0332	982.693	1.9665	-1.2454	-0.4632
6.1594	-5.1428	973.006	1.8747	-1.1406	-0.4588
14.8902	-5.8006	978.328	1.949	-1.1187	-0.4501
8.5514	-4.4252	974.62	1.9578	-1.1843	-0.4676
15.4284	-6.3388	977.431	1.9446	-1.2323	-0.4501
9.568	-1.5548	977.012	1.9053	-1.193	-0.4545
10.166	-6.0996	974.022	1.9053	-1.1624	-0.4414
11.1826	-1.3754	978.806	1.984	-1.193	-0.4763
10.3454	-8.9102	974.86	1.9053	-1.2017	-0.4763
14.4716	1.2558	980.242	1.9315	-1.2236	-0.4545
9.867	-9.8072	971.989	1.9272	-1.1799	-0.4283
15.4882	0.3588	982.634	1.9709	-1.2061	-0.4501
7.0564	-9.4484	971.212	1.8485	-1.1406	-0.4239
15.0098	-0.9568	983.052	1.9315	-1.2061	-0.4326
5.5614	-8.5514	968.939	1.8572	-1.1668	-0.4414
18.837	0.1196	981.497	1.9709	-1.2542	-0.4851
5.681	-5.7408	971.032	1.9097	-1.1449	-0.4501
16.8038	-4.0664	981.497	1.9228	-1.1668	-0.4414
5.6212	-6.4584	973.125	1.9009	-1.2192	-0.4064
16.5646	-4.3654	981.079	1.9228	-1.2192	-0.4457
8.4318	-4.7242	973.664	1.8704	-1.2061	-0.4326
14.5314	-3.9468	977.73	1.9141	-1.193	-0.4588
8.7308	-2.3322	976.115	1.9403	-1.1493	-0.4545
13.3952	-7.6544	977.311	1.9315	-1.2061	-0.437
11.0032	-0.7176	977.192	1.9315	-1.228	-0.4676
10.3454	-9.6278	974.142	1.9053	-1.1406	-0.4632
14.7108	-0.299	980.062	1.9403	-1.193	-0.4239
9.9866	-8.3122	971.451	1.8835	-1.1275	-0.4676
14.7108	0.5382	983.112	1.9403	-1.1581	-0.4326
6.9966	-9.1494	970.135	1.8048	-1.1581	-0.4414
14.95	-0.1196	982.693	1.8922	-1.1755	-0.4632
6.3986	-8.7308	971.69	1.8398	-1.1362	-0.4501
18.1194	-1.9734	979.763	1.9446	-1.2149	-0.4151
5.6212	-6.3986	972.049	1.9009	-1.2105	-0.4195
17.641	-2.8704	983.411	1.949	-1.1886	-0.4283
6.4584	-6.877	971.989	1.9315	-1.1886	-0.4632
13.8138	-2.8704	980.481	1.8747	-1.1886	-0.4283
7.176	-5.0232	972.826	1.8704	-1.1799	-0.4151
16.3852	-5.2624	980.002	1.9228	-1.1755	-0.4501
9.269	-2.6312	973.604	1.8966	-1.1755	-0.4283
11.661	-6.9368	976.893	1.984	-1.1712	-0.4588
11.2424	-2.392	977.969	2.0189	-1.2236	-0.4851
13.2158	-8.0132	975.099	1.9184	-1.2236	-0.4763
12.259	-0.1196	979.883	1.9228	-1.193	-0.4763
8.6112	-9.269	971.81	1.8398	-1.1581	-0.4457
15.4284	0	980.182	1.9184	-1.2061	-0.4283
8.073	-7.5946	974.381	1.8966	-1.1406	-0.4414
15.0696	-0.5382	979.943	1.9184	-1.1712	-0.4195
6.6976	-10.1062	971.929	1.9053	-1.1406	-0.4414
17.342	-0.9568	981.617	1.9272	-1.2061	-0.4807
6.0398	-7.176	972.348	1.9053	-1.2149	-0.4414
15.9666	-1.1362	981.856	1.9228	-1.2149	-0.4326
4.784	-6.8172	970.614	1.9009	-1.1449	-0.4414
15.7872	-2.8106	982.813	1.9665	-1.1799	-0.4414
6.4584	-4.784	971.989	1.9141	-1.1318	-0.4588
16.5646	-4.784	978.328	2.0189	-1.1624	-0.4851
8.5514	-3.0498	975.338	1.9403	-1.1799	-0.4414
14.4716	-5.681	977.311	1.9053	-1.2149	-0.4326
9.3886	-2.8704	977.969	1.9272	-1.228	-0.4326
11.5414	-6.9368	974.62	1.831	-1.1843	-0.4239
12.1394	-0.1196	979.105	1.8441	-1.2454	-0.4108
10.8238	-7.176	973.843	1.8966	-1.1624	-0.4151
14.7706	-0.9568	978.567	1.9315	-1.1712	-0.4195
9.2092	-10.5846	975.218	1.8878	-1.1712	-0.4545
14.352	0.299	981.079	1.9621	-1.2149	-0.4239
8.4318	-9.9268	972.408	1.8572	-1.2105	-0.3977
15.847	0.1196	981.557	1.9097	-1.2848	-0.4108
5.8006	-6.6378	970.016	1.9272	-1.2105	-0.4501
19.3154	-1.6744	983.232	1.9971	-1.2236	-0.4108
4.7242	-6.8172	970.793	1.8791	-1.2192	-0.4239
14.8304	-3.1096	980.6	1.9315	-1.1843	-0.4501
6.9368	-7.5946	973.963	1.8704	-1.1755	-0.4545
17.94	-2.8106	978.388	1.9009	-1.2367	-0.4239
7.7142	-3.588	976.115	1.9272	-1.2105	-0.4501
13.0962	-5.1428	976.115	1.8572	-1.1799	-0.4457
8.073	-3.1096	976.773	1.8878	-1.1974	-0.4545
12.259	-6.6378	977.311	1.9446	-1.1843	-0.3933
12.3188	-1.2558	976.773	1.866	-1.1624	-0.4588
10.8238	-8.1926	973.963	1.8704	-1.2236	-0.4151
13.9932	0	980.361	2.0189	-1.2105	-0.4414
9.5082	-9.8072	973.484	1.8878	-1.1974	-0.4151
13.3952	0.0598	982.155	1.9141	-1.2367	-0.4239
5.98	-9.0896	970.674	1.8616	-1.1799	-0.4151
16.8636	-0.7774	982.275	1.9709	-1.2105	-0.4676
6.8172	-7.5348	971.391	1.8835	-1.2149	-0.437
17.4018	-1.3754	980.78	1.9578	-1.2105	-0.472
5.681	-9.1494	971.69	1.9578	-1.1799	-0.4326
17.4018	-3.5282	981.617	1.9578	-1.193	-0.4239
17.4018	-6.0996	973.484	1.9184	-1.1799	-0.4457
6.279	-2.7508	979.644	1.9141	-1.2061	-0.4588
16.2656	-2.7508	973.305	1.9141	-1.2149	-0.4283
6.6378	-3.887	979.823	1.9446	-1.1537	-0.4414
15.548	-4.485	975.637	1.9359	-1.2017	-0.472
7.8338	-3.5282	974.441	1.8922	-1.1668	-0.4151
12.259	-7.1162	974.441	1.9359	-1.2017	-0.437
11.4218	-0.5382	978.448	1.8922	-1.2105	-0.4195
12.558	-8.073	974.022	1.9665	-1.2586	-0.4326
12.259	1.6146	979.763	1.9228	-1.1406	-0.4414
7.6544	-7.8936	972.468	1.984	-1.1974	-0.4326
14.1726	-1.3754	981.557	1.8704	-1.1799	-0.4283
8.3122	-8.671	972.767	1.8878	-1.2105	-0.3889
15.7872	-1.1362	980.541	1.9009	-1.1886	-0.3933
8.4916	-9.1494	972.826	1.9228	-1.2498	-0.437
17.4616	-0.8372	981.438	1.9228	-1.2061	-0.4151
5.98	-7.5348	971.69	1.9752	-1.1886	-0.437
16.9832	-2.5116	981.796	1.7917	-1.1624	-0.4151
5.0232	-6.6378	969.657	1.9403	-1.1843	-0.4632
17.1028	-1.7342	981.796	1.9009	-1.1493	-0.4195
6.7574	-5.083	973.066	1.9621	-1.1799	-0.437
15.6078	-4.9634	978.268	1.949	-1.1668	-0.4588
7.7142	-3.6478	977.072	1.8791	-1.1581	-0.4501
14.1726	-7.176	975.936	1.8791	-1.2061	-0.4195
9.4484	-1.1362	978.268	1.8922	-1.1449	-0.4326
10.9434	-6.9368	972.886	1.8354	-1.1449	-0.4676
12.6776	0.1794	978.866	1.9796	-1.2236	-0.4807
9.6876	-7.774	974.74	1.9097	-1.1886	-0.437
13.2158	-0.4784	979.763	1.9315	-1.1581	-0.4588
9.0298	-10.5846	974.142	1.8791	-1.1406	-0.4588
15.847	-0.2392	980.72	1.9141	-1.2149	-0.4851
8.9102	-8.073	971.929	1.8791	-1.1974	-0.437
16.0862	0.299	982.873	1.949	-1.2236	-0.4064
4.4252	-7.475	968.521	1.8572	-1.1712	-0.4151
16.6244	-2.0332	983.71	1.9665	-1.1974	-0.4414
5.7408	-7.176	970.853	1.9141	-1.1886	-0.4545
17.641	-2.8704	981.198	1.9228	-1.2061	-0.4457
7.1162	-5.5614	972.228	1.9228	-1.1974	-0.4676
16.744	-5.2026	979.943	1.9228	-1.2061	-0.4414
6.5182	-4.8438	975.637	1.9272	-1.1799	-0.4632
12.4982	-5.6212	976.594	1.8922	-1.1493	-0.4545
9.3288	-3.289	976.594	1.9141	-1.2061	-0.437
14.2324	-6.0996	974.919	1.9184	-1.1668	-0.4108
10.8836	0.1196	977.491	1.9665	-1.2061	-0.4151
10.6444	-9.269	974.62	1.9752	-1.1668	-0.4632
12.0198	-0.3588	979.883	1.9359	-1.1624	-0.4283
8.97	-8.8504	973.544	1.8878	-1.1668	-0.4239
14.95	0.0598	981.378	1.9359	-1.2061	-0.4195
8.073	-7.9534	970.733	1.8616	-1.1843	-0.4632
16.6842	0.299	984.487	1.9709	-1.2061	-0.4501
6.4584	-8.6112	971.212	1.866	-1.1712	-0.4195
16.0264	-1.4352	982.036	1.9184	-1.2192	-0.472
6.2192	-7.8338	971.63	1.8791	-1.1493	-0.4588
18.6576	-3.1096	981.916	1.9359	-1.1712	-0.4632
6.0996	-6.1594	971.929	1.8572	-1.193	-0.437
15.4284	-3.4684	979.345	1.9403	-1.2017	-0.4763
6.3986	-5.0232	974.142	1.8835	-1.2323	-0.4283
15.3686	-4.9634	979.105	1.9009	-1.1843	-0.4326
8.0132	-3.1694	975.398	1.9097	-1.1231	-0.4501
12.7374	-8.1328	976.295	1.9315	-1.1712	-0.4545
11.1826	-1.6146	976.594	1.9796	-1.2149	-0.402
11.96	-8.3122	975.517	1.9184	-1.2192	-0.4501
11.5414	-0.598	980.002	1.9228	-1.1755	-0.4676
7.3554	-8.6112	970.853	1.8267	-1.1231	-0.4414
14.1726	0.5382	980.72	1.9534	-1.1537	-0.4283
9.2092	-7.9534	973.185	1.9228	-1.1537	-0.4283
16.2656	0.299	981.019	1.9534	-1.2017	-0.437
6.6378	-8.671	972.707	1.9228	-1.0838	-0.4632
16.5646	-2.0332	983.83	1.949	-1.228	-0.4108
6.1594	-8.4318	971.272	1.8179	-1.1843	-0.4195
16.744	-0.3588	981.258	1.9228	-1.2017	-0.4414
5.98	-7.176	970.195	1.8616	-1.1537	-0.4064
17.1626	-2.1528	981.617	1.9752	-1.2061	-0.402
4.784	-5.083	971.989	1.9403	-1.1712	-0.4108
14.7706	-6.0398	978.328	1.9446	-1.1537	-0.4064
7.6544	-4.0066	975.218	1.9446	-1.1493	-0.3846
15.6078	-5.5614	976.833	1.9097	-1.193	-0.4195
10.1062	-1.5548	978.926	1.9009	-1.2105	-0.4457
10.166	-6.6378	974.86	1.8966	-1.2192	-0.4501
11.0032	-0.598	979.345	1.9534	-1.2192	-0.4632
10.764	-8.073	976.235	1.9446	-1.1668	-0.4676
14.5314	0.6578	977.67	1.8922	-1.2105	-0.4326
9.0298	-8.2524	973.903	1.9403	-1.1581	-0.4414
16.2058	-0.598	981.976	1.9665	-1.2586	-0.4457
7.6544	-8.671	971.69	1.9141	-1.1537	-0.4501
14.7108	0.4186	982.275	1.9009	-1.1886	-0.4283
5.2026	-8.7906	968.64	1.8704	-1.2411	-0.4763
18.7772	-0.1794	983.59	1.9927	-1.2717	-0.4676
6.279	-6.279	971.81	1.949	-1.1449	-0.4851
16.5048	-3.7674	981.856	1.9534	-1.2061	-0.4064
5.8604	-6.877	972.707	1.8878	-1.1799	-0.4326
17.043	-3.9468	979.345	1.9534	-1.228	-0.4632
8.1926	-4.186	974.8	1.9272	-1.1799	-0.4283
15.249	-4.8438	976.235	1.8791	-1.2149	-0.3977
8.1328	-2.392	975.398	1.8922	-1.2323	-0.4064
13.5148	-6.9966	977.192	1.9403	-1.1799	-0.4195
10.7042	-1.196	976.953	1.8966	-1.1974	-0.437
9.867	-7.774	975.577	1.8791	-1.1318	-0.4588
14.053	-1.7342	979.285	1.9403	-1.193	-0.4763
10.764	-8.671	972.228	1.8791	-1.1886	-0.4807
13.754	1.2558	981.617	1.9621	-1.193	-0.4676
7.4152	-9.1494	970.135	1.8835	-1.1799	-0.4239
15.6078	0.0598	983.351	1.9796	-1.1449	-0.4151
5.2026	-7.6544	969.478	1.9097	-1.1624	-0.4545
17.4018	-1.495	981.617	1.9709	-1.2061	-0.4501
6.279	-7.3554	972.527	1.9141	-1.1624	-0.4239
17.7606	-1.4352	981.677	1.9534	-1.1755	-0.437
5.9202	-6.1594	974.262	1.9184	-1.1974	-0.4632
14.7706	-3.4684	978.926	1.8704	-1.2017	-0.4763
7.4152	-4.2458	972.527	1.866	-1.1581	-0.4982
17.342	-4.7242	980.242	1.9359	-1.2192	-0.4632
8.7906	-3.1694	973.365	1.8747	-1.2061	-0.472
12.7972	-7.3554	977.192	1.9403	-1.193	-0.4414
11.2424	-3.0498	978.328	1.949	-1.1843	-0.4807
12.558	-7.6544	976.056	1.8922	-1.2149	-0.4763
12.0198	0.4186	978.926	1.9184	-1.1799	-0.4326
9.3886	-8.97	972.049	1.8267	-1.1668	-0.437
14.8304	1.1362	981.497	1.949	-1.2017	-0.4414
7.9534	-7.8936	973.185	1.9184	-1.1493	-0.4414
15.1892	-1.196	981.976	1.9141	-1.2061	-0.4588
6.2192	-9.4484	970.255	1.8922	-1.1581	-0.4982
17.5812	-0.1196	981.557	1.9534	-1.2061	-0.4326
7.2956	-7.5946	973.006	1.9053	-1.2323	-0.402
16.5646	-0.2392	980.541	1.9141	-1.2498	-0.4151
4.3654	-5.9202	970.973	1.866	-1.193	-0.4457
17.342	-3.7076	983.291	1.9709	-1.2367	-0.4326
6.7574	-4.485	971.272	1.9097	-1.1799	-0.4108
16.146	-4.3056	978.687	1.9228	-1.1974	-0.4632
9.7474	-4.186	975.697	1.9009	-1.2323	-0.4283
15.0098	-6.3388	978.089	1.8485	-1.2236	-0.4501
8.5514	-2.4518	977.192	1.9315	-1.2105	-0.4239
10.8238	-7.774	973.424	1.8704	-1.1581	-0.437
12.3786	-1.1362	978.448	1.8791	-1.228	-0.4283
10.7042	-6.7574	973.843	1.9053	-1.1886	-0.437
13.8138	-0.5382	979.823	1.949	-1.2149	-0.4108
8.073	-10.2856	972.946	1.9272	-1.1493	-0.4457
14.7108	0.4186	981.497	1.9752	-1.1886	-0.4326
8.7906	-9.269	972.288	1.9053	-1.1843	-0.4763
16.2656	0.8372	982.095	1.9796	-1.228	-0.4064
5.6212	-7.3554	969.537	1.9097	-1.2411	-0.4283
18.2988	-0.7774	983.471	1.9752	-1.2498	-0.4545
5.1428	-5.5614	971.989	1.8966	-1.1624	-0.4108
16.5646	-3.2292	980.541	1.9578	-1.1537	-0.437
7.6544	-6.279	973.245	1.9228	-1.1231	-0.472
17.94	-4.186	979.285	1.9141	-1.2061	-0.4588
7.0564	-2.7508	974.919	1.8878	-1.2586	-0.4283
13.8138	-5.681	977.072	1.9141	-1.228	-0.3802
8.6112	-3.9468	975.876	1.8878	-1.2061	-0.437
11.661	-5.98	976.355	1.8966	-1.1974	-0.4283
11.0032	-2.2724	976.594	1.8791	-1.1886	-0.4283
11.7806	-8.4916	973.723	1.9009	-1.1624	-0.4414
13.3952	-0.0598	980.062	1.949	-1.2192	-0.4676
9.8072	-10.2856	973.185	1.9097	-1.1537	-0.4195
13.6344	0.2392	981.737	1.9534	-1.2149	-0.4326
5.382	-8.671	970.315	1.8529	-1.1624	-0.472
17.7008	0.2392	983.77	1.984	-1.1799	-0.5025
7.3554	-7.0564	970.315	1.9184	-1.1668	-0.4414
16.3852	-0.3588	982.275	1.9752	-1.1886	-0.4064
6.8172	-7.5946	973.125	1.949	-1.1581	-0.4239
16.2656	-2.691	981.976	1.9621	-1.1843	-0.4807
5.9202	-5.6212	972.587	1.8835	-1.1581	-0.4283
16.8038	-4.0066	979.105	1.9141	-1.1886	-0.402
6.0398	-3.4086	972.527	1.9403	-1.2411	-0.4283
15.847	-4.186	978.567	1.949	-1.2586	-0.4283
8.2524	-3.588	975.039	1.8922	-1.1843	-0.4283
12.0198	-6.7574	974.979	1.9053	-1.1712	-0.3889
12.3188	-2.691	979.105	1.9534	-1.2017	-0.4501
13.6344	-8.1926	974.501	1.9097	-1.2192	-0.4763
11.5414	0.4784	979.464	1.9184	-1.2192	-0.437
8.6112	-9.1494	971.81	1.8922	-1.1362	-0.4239
13.5148	-0.1196	982.574	2.0189	-1.1886	-0.4326
6.877	-9.1494	971.571	1.8529	-1.1843	-0.4632
15.0696	0.7176	978.926	1.8966	-1.2586	-0.4414
9.4484	-9.3886	973.125	1.9272	-1.1668	-0.4414
18.1792	-0.7774	983.471	1.9315	-1.228	-0.4457
5.083	-6.578	970.793	1.8572	-1.2061	-0.402
16.6244	-3.289	982.394	1.9403	-1.2323	-0.437
5.681	-6.1594	971.331	1.8747	-1.1537	-0.4457
17.4018	-2.093	980.72	1.9446	-1.228	-0.4283
7.1162	-5.4418	974.441	1.9009	-1.1755	-0.4545
14.352	-5.4418	977.491	1.9446	-1.1886	-0.4414
7.5946	-3.3488	975.697	1.9709	-1.1974	-0.437
14.8304	-7.176	978.029	1.9097	-1.1799	-0.4326
10.1062	-1.3754	975.936	1.9097	-1.2498	-0.4545
9.7474	-5.98	973.006	1.8835	-1.2017	-0.402
12.558	-1.1362	980.062	1.9534	-1.2061	-0.4326
11.063	-7.6544	973.723	1.9272	-1.1449	-0.4545
12.3188	0.3588	981.378	1.9665	-1.2367	-0.4239
7.7142	-9.9268	971.092	1.949	-1.1843	-0.4501
17.2224	-0.299	981.079	1.9621	-1.2367	-0.472
8.1328	-8.4318	973.604	1.8747	-1.1843	-0.4414
15.7274	0.8372	980.84	1.9752	-1.1624	-0.437
5.681	-8.9102	970.913	1.8398	-1.1275	-0.4283
16.6244	-1.8538	984.428	1.9578	-1.1886	-0.4632
5.3222	-6.578	970.733	1.8791	-1.0925	-0.437
17.7008	-2.7508	981.378	1.9883	-1.1843	-0.4239
6.9368	-6.5182	971.69	1.9752	-1.2629	-0.4108
16.2058	-4.0066	980.66	1.9403	-1.1668	-0.4283
7.2956	-4.6046	974.262	1.8878	-1.1362	-0.4239
13.2158	-5.5614	976.773	1.9053	-1.1362	-0.4588
8.0132	-3.3488	975.637	1.9315	-1.1799	-0.4632
14.651	-6.4584	976.534	1.8922	-1.1886	-0.4588
11.0032	-1.2558	978.388	1.9403	-1.2105	-0.4283
9.3288	-8.2524	973.424	1.9752	-1.1231	-0.4457
13.6344	-0.897	980.66	1.9621	-1.2105	-0.4545
9.7474	-9.568	974.441	1.8398	-1.1712	-0.4676
14.1128	1.3754	980.72	1.9446	-1.1886	-0.4763
7.4152	-8.6112	969.119	1.831	-1.1755	-0.4457
16.3254	1.0764	983.112	1.984	-1.2629	-0.4283
6.9368	-8.2524	971.032	1.9009	-1.2061	-0.4807
16.5048	-2.4518	983.471	1.9359	-1.1668	-0.4938
4.5448	-7.1162	969.896	1.8529	-1.1843	-0.4108
18.9566	-2.2724	983.411	1.9446	-1.2149	-0.4632
7.8338	-5.6212	971.571	1.9315	-1.2149	-0.4588
15.3088	-2.2126	981.079	1.9184	-1.1755	-0.4676
5.681	-5.5614	971.929	1.9141	-1.1755	-0.4414
16.3254	-5.3222	980.481	1.9621	-1.1799	-0.4676
9.0298	-2.5116	973.783	1.8922	-1.1843	-0.437
14.1726	-6.578	976.295	1.949	-1.1843	-0.4239
11.2424	-2.392	977.85	1.9621	-1.2192	-0.4283
12.0796	-7.6544	974.919	1.9228	-1.1624	-0.4108
11.2424	0.0598	980.182	1.9534	-1.2192	-0.4545
9.5082	-9.269	971.571	1.8267	-1.1974	-0.4763
14.2922	1.3156	981.019	1.984	-1.2323	-0.4326
9.7474	-8.7308	973.125	1.9141	-1.1537	-0.4108
15.249	-0.2392	981.139	1.9097	-1.1755	-0.4501
6.279	-8.8504	971.75	1.9097	-1.1755	-0.4632
16.445	-0.897	981.796	1.9796	-1.2017	-0.4414
6.877	-8.073	972.647	1.8791	-1.1624	-0.4676
16.0264	-0.6578	980.182	1.9097	-1.2149	-0.4501
5.4418	-6.7574	969.597	1.8616	-1.1843	-0.3758
17.7008	-2.4518	984.129	1.9446	-1.2105	-0.4457
5.7408	-4.8438	972.109	1.8354	-1.2149	-0.3977
16.2656	-5.7408	980.899	1.949	-1.1755	-0.4326
7.8338	-4.186	973.723	1.8616	-1.193	-0.4457
14.5314	-5.0232	974.919	1.9097	-1.2149	-0.4414
10.166	-1.7342	979.225	1.9446	-1.2192	-0.4108
11.661	-6.7574	973.484	1.8572	-1.2017	-0.402
10.7042	-0.0598	980.002	1.9534	-1.1974	-0.4326
10.8238	-8.97	974.441	1.9097	-1.1624	-0.4588
14.053	-0.1196	976.893	1.9752	-1.1755	-0.4195
9.0896	-7.8338	972.288	1.9228	-1.1799	-0.4588
17.4616	-0.299	981.378	1.9971	-1.2061	-0.4457
8.2524	-9.4484	973.903	1.8922	-1.1668	-0.4807
13.156	0.2392	981.796	1.9403	-1.2454	-0.4151
6.0996	-8.2524	968.939	1.8966	-1.1624	-0.4545
18.2988	-0.299	984.009	1.9971	-1.2149	-0.4676
6.2192	-6.1594	969.537	1.8485	-1.1843	-0.4195
17.7008	-3.4684	983.531	1.9403	-1.1799	-0.3977
5.382	-6.877	972.348	1.8966	-1.193	-0.437
16.146	-3.289	978.986	1.949	-1.2149	-0.4938
7.2956	-3.7674	973.963	1.9097	-1.1974	-0.4457
14.5912	-5.083	976.295	1.8922	-1.1843	-0.4414
9.269	-1.794	977.012	1.9272	-1.2061	-0.4501
13.455	-6.6976	977.551	1.9272	-1.1755	-0.4239
10.0464	-1.6744	976.833	1.9097	-1.1712	-0.4457
9.6278	-8.0132	973.544	1.9621	-1.1843	-0.4632
14.5912	-0.3588	979.524	1.9578	-1.1668	-0.3933
11.2424	-8.97	975.218	1.9228	-1.1799	-0.4414
13.8736	1.196	980.062	1.9403	-1.2017	-0.4414
6.8172	-8.4916	971.331	1.8791	-1.193	-0.4151
16.2656	-0.4784	983.65	1.9752	-1.1886	-0.4588
6.3388	-7.4152	970.135	1.866	-1.1886	-0.4588
17.1028	-1.7342	982.574	1.9359	-1.2367	-0.4414
7.0564	-8.4916	970.016	1.8616	-1.2149	-0.4588
17.641	-1.6146	983.291	1.8966	-1.2017	-0.4545
6.6378	-6.4584	972.886	1.9315	-1.1886	-0.437
15.249	-3.9468	980.062	1.9228	-1.2149	-0.4545
5.8006	-4.6644	972.288	1.9141	-1.2017	-0.4239
17.1626	-4.485	979.943	1.9621	-1.1886	-0.4151
8.8504	-3.3488	973.903	1.9097	-1.1974	-0.4239
13.5148	-6.578	977.192	1.9359	-1.1799	-0.4283
10.5846	-2.392	977.252	1.9578	-1.1886	-0.4545
11.8404	-8.1328	975.159	1.9228	-1.193	-0.4283
11.661	0	979.105	1.9141	-1.1843	-0.4108
10.0464	-8.372	972.468	1.8529	-1.1668	-0.4676
15.4882	0.4186	981.557	1.9578	-1.2236	-0.4632
8.0132	-8.073	972.946	1.866	-1.1275	-0.4545
14.651	-0.3588	981.438	1.9315	-1.1712	-0.4457
6.9966	-9.6278	972.049	1.9446	-1.11	-0.4326
17.1626	0.2392	981.378	1.9403	-1.2061	-0.4414
6.4584	-7.1162	971.87	1.8922	-1.1362	-0.4195
17.2224	-1.3754	981.438	1.9403	-1.2323	-0.4414
4.6046	-6.8172	970.853	1.8485	-1.2105	-0.4283
17.1626	-2.8106	983.71	1.9534	-1.2017	-0.4414
6.6976	-6.0398	971.092	1.8791	-1.1799	-0.4676
15.9068	-4.2458	978.567	1.9621	-1.1712	-0.4807
8.6112	-3.289	975.338	1.9752	-1.1886	-0.4851
15.0696	-5.681	977.969	1.949	-1.2192	-0.4414
7.6544	-2.3322	976.534	1.9141	-1.2236	-0.402
11.2424	-7.2956	974.74	1.8441	-1.1886	-0.4414
13.2158	-0.4186	979.644	1.9752	-1.2323	-0.4283
10.8836	-7.176	973.245	1.9315	-1.1799	-0.472
14.053	-0.5382	980.182	1.9578	-1.2017	-0.4457
9.0298	-10.166	973.604	1.9141	-1.1712	-0.4414
15.0696	0.1196	981.198	1.9359	-1.2498	-0.4938
9.269	-9.0896	972.767	1.8398	-1.1493	-0.3977
16.2058	0.3588	980.899	1.8572	-1.1974	-0.4108
4.9036	-7.2358	969.358	1.8572	-1.1974	-0.4239
17.9998	-0.2392	984.547	1.9883	-1.2149	-0.4151
4.5448	-7.2956	970.195	1.8835	-1.1581	-0.437
16.3852	-2.8704	981.139	1.984	-1.2061	-0.4414
6.3388	-6.1594	973.305	1.9272	-1.1799	-0.4763
17.7008	-3.887	980.002	1.9315	-1.2149	-0.4283
6.6378	-2.8704	975.338	1.8878	-1.1843	-0.402
13.2158	-5.4418	975.876	1.9009	-1.1755	-0.4195
9.3886	-2.093	976.474	1.9184	-1.2017	-0.3977
12.558	-6.3388	976.474	1.8966	-1.193	-0.4108
11.1826	-1.6744	977.012	1.9272	-1.193	-0.4283
12.3188	-9.269	974.501	1.9184	-1.1755	-0.437
13.9334	0.1794	979.165	1.9359	-1.2192	-0.4763
10.465	-9.3886	974.62	1.8791	-1.193	-0.4283
14.1128	-0.2392	981.497	1.9141	-1.1624	-0.437
6.6378	-9.1494	969.059	1.8791	-1.1668	-0.4195
17.043	0.5382	984.129	1.9796	-1.2192	-0.4108
7.7142	-8.1926	970.315	1.8878	-1.193	-0.4108
16.2058	-0.5382	981.737	1.9709	-1.1843	-0.4807
5.5016	-7.7142	972.169	1.9359	-1.1406	-0.472
18.3586	-2.7508	982.275	1.8966	-1.2017	-0.4545
5.7408	-5.3222	973.365	1.8529	-1.1799	-0.4632
15.548	-4.0066	978.507	1.9141	-1.1712	-0.4239
7.0564	-4.186	973.604	1.9621	-1.193	-0.4457
15.6676	-3.887	979.345	1.9534	-1.1712	-0.437
7.5946	-4.0066	975.398	1.8791	-1.1799	-0.472
12.558	-7.8338	976.056	1.9009	-1.1581	-0.4763
12.558	-2.2724	976.594	1.9228	-1.2017	-0.4588
9.7474	-7.5946	976.654	1.9184	-1.228	-0.4414
13.3354	-0.0598	979.883	1.9665	-1.2236	-0.437
12.558	-0.0598	971.391	1.866	-1.1974	-0.4064
8.5514	-8.6112	982.813	2.0015	-1.1974	-0.4108
13.455	0.6578	982.813	1.8922	-1.1449	-0.4151
8.2524	-9.2092	971.87	1.9578	-1.2105	-0.4457
15.7274	-0.299	981.438	1.8835	-1.1493	-0.4632
6.9966	-8.7308	971.092	1.9272	-1.2105	-0.472
18.6576	-0.598	982.753	1.8572	-1.2236	-0.4545
5.8006	-7.2956	973.125	1.9141	-1.2236	-0.4283
15.548	-1.9734	980.66	1.8616	-1.1886	-0.4938
6.2192	-7.6544	971.092	1.949	-1.2323	-0.4151
18.0596	-2.0332	981.796	1.9184	-1.2061	-0.4545
6.6378	-5.1428	972.109	1.9315	-1.193	-0.437
14.352	-5.5614	979.345	1.8747	-1.2454	-0.3889
6.6378	-3.8272	973.365	1.949	-1.2061	-0.437
15.249	-7.0564	978.328	1.9228	-1.2105	-0.4632
10.465	-2.392	978.806	1.8004	-1.2017	-0.4545
10.5248	-6.4584	972.348	1.9621	-1.2105	-0.4676
11.9002	-0.2392	979.464	1.8922	-1.1493	-0.4501
10.5846	-8.671	973.843	1.8922	-1.2149	-0.4545
12.6776	0.2392	980.6	1.9228	-1.1712	-0.4501
8.372	-9.9268	971.571	1.9009	-1.193	-0.4326
16.3254	-0.8372	981.079	1.984	-1.193	-0.4457
9.4484	-8.671	969.956	1.8791	-1.1581	-0.4501
17.342	1.5548	983.71	1.9883	-1.1712	-0.437
5.8604	-8.7906	971.152	1.9053	-1.1581	-0.437
16.8038	-0.6578	983.83	1.9534	-1.2017	-0.4283
6.279	-7.3554	971.69	1.8747	-1.1187	-0.4414
17.5214	-2.8106	981.079	1.9403	-1.1581	-0.4676
6.578	-5.0232	971.989	1.8922	-1.2017	-0.4545
16.3254	-4.5448	980.242	1.9446	-1.2149	-0.437
6.0398	-4.7242	974.62	1.9141	-1.1886	-0.437
13.455	-5.9202	976.175	1.8878	-1.2192	-0.4283
9.9268	-2.3322	976.713	1.9141	-1.2323	-0.4195
14.4716	-5.8604	975.936	1.9359	-1.2105	-0.4195
10.465	-0.7774	977.132	1.9359	-1.2411	-0.4763
9.867	-8.97	973.963	1.9009	-1.1755	-0.4632
13.8736	-1.1362	980.6	1.9578	-1.2149	-0.4501
9.867	-8.7906	973.723	1.8704	-1.1843	-0.4239
14.7706	1.6146	981.796	1.9578	-1.2192	-0.4195
8.073	-9.9268	970.494	1.8966	-1.1755	-0.4807
16.3254	1.495	984.248	1.9927	-1.2017	-0.472
6.5182	-8.073	970.255	1.9009	-1.1755	-0.4501
16.5646	-1.3754	982.454	1.9446	-1.228	-0.4195
5.2624	-8.1926	969.179	1.8878	-1.1843	-0.4457
18.9566	-1.794	982.335	1.9621	-1.2454	-0.4064
7.2956	-5.98	973.903	1.9009	-1.2105	-0.3977
14.4716	-2.691	978.866	1.8529	-1.2367	-0.4195
5.1428	-4.784	972.647	1.9403	-1.1581	-0.4326
15.0696	-5.083	980.72	1.9315	-1.1755	-0.4283
8.4916	-3.9468	973.664	1.8835	-1.1799	-0.4457
13.3952	-6.0996	977.491	1.9709	-1.2017	-0.4763
12.0198	-3.289	977.012	1.9534	-1.2236	-0.472
12.1992	-6.9368	975.458	1.8922	-1.1886	-0.4501
11.2424	-0.0598	980.182	1.9184	-1.2017	-0.4501
9.269	-8.9102	971.212	1.8704	-1.1493	-0.4326
14.1726	1.495	981.438	1.9053	-1.2061	-0.4457
9.1494	-8.372	971.87	1.866	-1.1449	-0.4545
16.2656	-0.1794	982.454	1.9665	-1.1712	-0.472
6.6976	-8.671	971.152	1.8922	-1.1581	-0.4414
16.5048	-1.3754	982.992	1.9578	-1.193	-0.5157
6.6976	-8.2524	972.228	1.866	-1.1712	-0.4807
16.8038	-0.897	980.959	1.9097	-1.1886	-0.437
5.8604	-6.2192	970.135	1.9097	-1.2105	-0.4457
18.0596	-3.1096	982.215	2.0102	-1.1843	-0.472
5.5614	-4.9036	971.032	1.8572	-1.1275	-0.4763
14.2922	-5.2624	979.943	1.9752	-1.1974	-0.472
8.0132	-4.784	974.441	1.9141	-1.1799	-0.4457
15.3686	-5.2624	977.79	1.9228	-1.2192	-0.4283
9.2092	-0.897	977.192	1.9446	-1.2192	-0.3933
11.063	-6.9966	974.86	1.8835	-1.2061	-0.4414
11.362	-0.299	979.345	1.9534	-1.2105	-0.4545
10.8238	-7.7142	973.544	1.9097	-1.1493	-0.4588
14.2922	-1.0166	980.122	1.9228	-1.1886	-0.4545
8.97	-9.8072	971.75	1.9053	-1.2367	-0.4326
16.5646	0.897	981.378	1.949	-1.2498	-0.4588
8.6112	-9.3886	973.783	1.8878	-1.193	-0.4414
14.4716	0.3588	981.258	1.8922	-1.1843	-0.4894
4.784	-8.372	971.092	1.9053	-1.1886	-0.4545
18.4782	-1.1362	982.514	2.0102	-1.1974	-0.4632
6.1594	-6.578	970.494	1.8922	-1.1755	-0.4283
16.744	-2.691	982.813	1.9403	-1.2061	-0.4457
6.2192	-7.2358	971.69	1.8966	-1.1581	-0.472
17.1028	-4.2458	980.66	1.9009	-1.2017	-0.4588
7.176	-3.5282	974.441	1.8878	-1.1886	-0.4064
14.8902	-5.3222	976.773	1.9097	-1.1886	-0.4414
8.7308	-2.2126	976.355	1.9315	-1.2542	-0.4588
13.0364	-5.4418	977.072	1.9621	-1.1799	-0.4239
10.764	-2.4518	978.567	1.9359	-1.1843	-0.402
11.1228	-8.9102	974.68	1.8791	-1.1581	-0.4195
13.5746	-0.1794	978.328	1.9272	-1.1493	-0.4457
11.1826	-8.6112	973.903	1.9097	-1.193	-0.4064
13.9932	1.794	980.062	1.9272	-1.2411	-0.402
6.6378	-8.4318	970.494	1.8835	-1.193	-0.402
15.0696	0.1794	982.933	1.9971	-1.1886	-0.4326
6.6976	-7.7142	970.674	1.8922	-1.1537	-0.4326
16.6842	-1.0764	981.677	1.9403	-1.1974	-0.4283
7.3554	-7.6544	972.408	1.8922	-1.1799	-0.4501
18.239	-2.3322	982.335	1.9228	-1.2367	-0.3933
5.8604	-6.0398	971.87	1.8704	-1.1668	-0.437
15.9068	-3.8272	979.763	1.9315	-1.2105	-0.4588
6.4584	-4.784	972.109	1.9141	-1.228	-0.437
16.6842	-3.289	979.883	1.949	-1.1537	-0.4283
9.1494	-4.485	975.278	1.8835	-1.1755	-0.437
13.0364	-7.2956	976.594	1.8835	-1.1362	-0.4588
9.4484	-2.5116	977.192	1.8704	-1.1493	-0.4326
12.6178	-8.7308	976.056	1.8791	-1.2105	-0.4763
11.4816	0.4186	978.448	1.9228	-1.2367	-0.437
8.9102	-7.2956	971.75	1.8529	-1.1799	-0.472
14.2324	1.196	980.66	1.9534	-1.2061	-0.4239
7.774	-8.073	972.049	1.8704	-1.1712	-0.4326
14.4118	-0.4784	980.182	1.9927	-1.1974	-0.4283
7.1162	-8.7906	973.604	1.949	-1.1668	-0.4501
17.043	-1.3156	982.693	1.9534	-1.276	-0.4851
8.1926	-6.4584	972.468	1.8835	-1.2498	-0.472
17.7008	-0.6578	981.139	1.8747	-1.193	-0.4851
6.0398	-6.9966	972.109	1.8922	-1.1799	-0.4632
17.8802	-2.7508	982.335	1.9621	-1.1712	-0.4501
6.0398	-6.3986	971.75	1.8704	-1.1799	-0.4763
15.847	-5.4418	978.507	1.9578	-1.2061	-0.4545
8.2524	-4.1262	973.066	1.9141	-1.1886	-0.4283
15.4882	-6.3388	978.268	1.9403	-1.1755	-0.3889
7.4152	-2.9302	977.132	1.8878	-1.2017	-0.4283
9.8072	-7.4152	972.826	1.8704	-1.1449	-0.437
12.3786	-0.6578	979.823	1.9665	-1.2411	-0.4588
11.96	-7.0564	972.468	1.8966	-1.1712	-0.4283
13.8736	0.7774	978.926	1.9883	-1.1581	-0.3977
8.5514	-9.6278	974.022	1.8922	-1.1886	-0.4283
14.4118	-0.0598	981.438	1.9009	-1.2454	-0.4283
8.4318	-7.9534	974.022	1.8966	-1.2017	-0.4239
16.2058	0.0598	980.959	1.9446	-1.2149	-0.4938
6.2192	-7.9534	969.896	1.8747	-1.1406	-0.4676
17.4018	-0.9568	984.428	1.9796	-1.228	-0.4588
6.0996	-8.1328	971.75	1.8441	-1.1624	-0.3846
16.8636	-2.5714	981.737	1.9315	-1.2017	-0.4151
5.681	-6.6378	971.032	1.9228	-1.1668	-0.4457
18.5978	-3.0498	980.66	1.9009	-1.2323	-0.4588
7.2956	-3.8272	974.86	1.9053	-1.2017	-0.4457
13.0364	-5.2624	975.936	1.9053	-1.193	-0.4414
8.1328	-3.588	976.235	1.9578	-1.1799	-0.4763
12.9168	-6.5182	976.295	1.8835	-1.2061	-0.4763
11.4218	-1.4352	977.132	1.9578	-1.2411	-0.4588
11.96	-7.8338	974.74	1.9578	-1.1843	-0.4545
13.0962	-1.0764	978.448	1.9578	-1.2454	-0.4457
10.2856	-8.1328	974.202	1.9228	-1.193	-0.4151
13.9932	0.897	981.019	1.9752	-1.2236	-0.4632
8.2524	-9.4484	970.853	1.8572	-1.228	-0.4632
16.6842	0.9568	981.916	1.9359	-1.193	-0.4414
8.1328	-7.9534	971.75	1.8747	-1.1886	-0.4588
16.6244	-1.196	982.813	1.9621	-1.193	-0.4326
5.6212	-7.9534	970.853	1.8878	-1.1668	-0.402
18.0596	-2.5714	983.112	1.9228	-1.1624	-0.4632
5.8006	-6.0398	971.989	1.8704	-1.1493	-0.4588
15.4882	-1.9136	978.388	1.8966	-1.2411	-0.4457
6.0398	-5.5016	973.305	1.9097	-1.1406	-0.4195
16.6244	-3.7076	978.149	1.9534	-1.193	-0.4763
7.8338	-3.588	975.517	1.9053	-1.2149	-0.4632
12.9766	-6.877	976.893	1.9141	-1.1712	-0.4545
11.0032	-2.4518	976.414	1.9272	-1.2192	-0.4195
13.5148	-7.0564	975.637	1.9272	-1.228	-0.4501
12.9168	-0.1794	979.584	1.9621	-1.193	-0.4239
9.9866	-7.9534	973.424	1.8878	-1.2411	-0.4326
13.2756	1.0166	981.318	1.9578	-1.2105	-0.402
8.97	-8.7308	972.527	1.866	-1.1362	-0.4326
15.4882	0.4784	981.378	1.9534	-1.1974	-0.4326
8.3122	-8.1926	971.212	1.8616	-1.1275	-0.4457
16.8636	-0.897	982.335	1.9796	-1.2192	-0.4545
5.9202	-8.5514	973.185	1.8966	-1.1843	-0.4851
15.1892	-0.9568	980.361	1.9228	-1.2149	-0.4501
5.5016	-6.8172	971.152	1.8704	-1.1974	-0.4108
17.9998	-1.5548	981.497	1.8791	-1.2105	-0.4501
7.1162	-5.1428	971.152	1.8878	-1.1799	-0.4283
15.7274	-4.7242	979.464	1.9534	-1.2061	-0.4239
7.2956	-5.5016	975.099	1.9184	-1.1668	-0.4151
15.0098	-5.7408	977.311	1.9359	-1.2717	-0.4938
9.5082	-1.794	978.149	1.9228	-1.1843	-0.4763
11.3022	-6.8172	972.527	1.8441	-1.1886	-0.4676
11.4816	0.1794	978.208	1.9184	-1.193	-0.4108
12.558	-7.8936	974.8	1.8791	-1.1712	-0.4414
13.455	-0.8372	979.883	1.9315	-1.1624	-0.4545
9.1494	-8.8504	973.185	1.8835	-1.1668	-0.4982
15.7274	-0.5382	982.574	1.9403	-1.2061	-0.4894
9.0298	-8.4916	972.109	1.8267	-1.1886	-0.5025
14.651	1.0764	982.335	1.9315	-1.2105	-0.4676
6.5182	-8.6112	970.554	1.8704	-1.1712	-0.4501
16.744	-0.4784	983.471	1.949	-1.1624	-0.472
5.382	-7.0564	969.836	1.866	-1.1712	-0.4457
17.5214	-2.8704	981.916	1.9927	-1.1843	-0.437
6.9368	-6.6976	971.81	1.9097	-1.1624	-0.4326
17.4616	-3.1096	981.617	1.9359	-1.1799	-0.437
6.4584	-5.3222	974.501	1.9184	-1.1581	-0.3715
13.8736	-5.6212	977.311	1.9009	-1.1668	-0.3933
8.7308	-2.8106	974.86	1.9621	-1.2498	-0.4457
14.651	-5.8604	976.414	1.9665	-1.1712	-0.472
11.4218	-1.5548	976.594	1.9534	-1.2192	-0.4588
10.2856	-7.475	975.936	1.8835	-1.193	-0.3977
12.4384	-1.3754	978.866	1.9228	-1.2192	-0.4501
10.8836	-8.7308	974.082	1.8747	-1.1799	-0.4588
14.1726	0.7774	980.361	1.9097	-1.1886	-0.4545
7.176	-7.9534	970.195	1.8616	-1.1886	-0.4501
15.3686	0.7774	983.59	1.9534	-1.2323	-0.4588
7.774	-8.1328	970.434	1.8441	-1.1712	-0.4283
15.7274	-1.5548	984.667	1.9534	-1.1843	-0.4064
6.3388	-9.6876	970.434	1.8791	-1.1318	-0.4195
18.2988	-2.5116	981.617	1.9578	-1.193	-0.4414
6.9368	-6.3388	972.408	1.8922	-1.1755	-0.437
16.0264	-2.5116	978.806	1.8966	-1.1843	-0.4414
5.4418	-5.0232	973.066	1.8791	-1.1886	-0.4414
15.548	-4.6046	980.361	1.9752	-1.1755	-0.4632
8.2524	-4.2458	973.125	1.9053	-1.2105	-0.472
13.9932	-4.6046	977.431	1.8922	-1.1712	-0.4326
11.5414	-2.9302	976.175	1.9184	-1.2061	-0.472
12.3786	-6.4584	977.072	1.8878	-1.2061	-0.4414
10.1062	-0.3588	979.404	1.8966	-1.2498	-0.3977
8.7906	-9.0298	972.707	1.8835	-1.193	-0.4151
14.1128	0.6578	981.019	1.9883	-1.2498	-0.4151
9.3886	-7.6544	970.913	1.9097	-1.1974	-0.3977
15.1294	0.4784	981.497	1.9883	-1.2717	-0.4763
6.9966	-10.4052	971.331	1.9053	-1.1712	-0.4239
16.0264	-1.1362	981.796	1.9752	-1.1843	-0.437
7.2358	-8.0132	972.647	1.9446	-1.1406	-0.4545
17.1028	-1.9136	981.139	1.984	-1.1886	-0.437
5.3222	-6.279	969.836	1.8878	-1.2017	-0.4545
17.8204	-1.6146	982.634	1.9534	-1.1668	-0.4283
5.2026	-5.4418	973.066	1.9097	-1.1843	-0.4457
15.1892	-4.2458	979.404	1.9315	-1.1581	-0.4632
8.073	-5.2624	973.245	1.8922	-1.1493	-0.4064
15.9666	-5.6212	979.404	1.9184	-1.1843	-0.4501
9.5082	-2.5714	974.8	1.9446	-1.2192	-0.437
11.1826	-6.2192	974.86	1.8922	-1.1799	-0.4414
10.8836	-0.598	979.345	1.9578	-1.2061	-0.4326
10.1062	-7.1162	972.707	1.9141	-1.228	-0.4894
12.857	-0.3588	980.242	1.9621	-1.228	-0.4414
10.1062	-9.9268	971.989	1.9097	-1.1755	-0.402
15.548	0.1196	980.899	1.9009	-1.2367	-0.4151
8.9102	-9.2092	974.561	1.9228	-1.1755	-0.4283
14.7108	-0.598	980.78	1.9315	-1.2192	-0.4151
6.0398	-8.1328	970.674	1.8878	-1.1886	-0.4064
17.4616	0.0598	982.574	1.9446	-1.228	-0.4676
6.9966	-6.5182	970.076	1.8398	-1.193	-0.437
16.5646	-1.9734	982.155	1.9446	-1.2192	-0.4239
5.8604	-8.073	970.853	1.9359	-1.1581	-0.4414
18.239	-4.4252	982.574	1.9141	-1.2105	-0.4588
7.0564	-4.9634	972.647	1.8267	-1.1624	-0.4326
15.0696	-4.0664	977.73	1.8704	-1.2061	-0.4632
8.1328	-3.3488	974.86	1.9141	-1.2061	-0.4326
13.6344	-5.2624	977.192	1.9359	-1.1843	-0.472
9.6876	-2.0332	976.773	1.9228	-1.1624	-0.4195
11.1826	-8.7906	975.577	1.9141	-1.1624	-0.437
12.7374	-1.0166	977.491	1.9359	-1.2061	-0.4545
11.5414	-7.8338	975.218	1.9359	-1.1362	-0.4763
13.6942	0.2392	979.823	1.9534	-1.2498	-0.3802
6.8172	-7.8338	971.81	1.8747	-1.2061	-0.402
14.5314	0.4784	982.574	1.9796	-1.1581	-0.4239
6.9368	-9.0896	971.032	1.8354	-1.1843	-0.4501
17.1028	-0.4186	981.916	1.9621	-1.2149	-0.3977
6.7574	-7.5348	971.571	1.9141	-1.1755	-0.4326
19.1958	-2.4518	983.052	1.949	-1.2542	-0.4545
6.279	-6.877	971.81	1.9009	-1.2149	-0.4501
15.1294	-3.6478	981.318	1.9446	-1.1755	-0.437
6.578	-5.98	972.049	1.8704	-1.1624	-0.4501
16.3254	-2.5116	979.823	1.8922	-1.2017	-0.437
8.2524	-3.9468	974.321	1.8922	-1.1974	-0.3846
13.8138	-6.2192	977.909	1.9228	-1.2061	-0.4588
9.1494	-2.99	976.355	1.9228	-1.2061	-0.4501
13.2756	-7.774	976.594	1.9184	-1.1886	-0.4588
11.5414	-0.6578	978.806	1.9184	-1.2236	-0.4326
9.8072	-8.5514	971.81	1.8398	-1.2017	-0.4195
13.3952	0.4784	980.6	1.9752	-1.2236	-0.4239
8.9102	-8.9102	972.707	1.9009	-1.2061	-0.4283
13.6942	0.7774	980.541	1.9621	-1.193	-0.4064
7.4152	-8.7906	972.169	1.9009	-1.1449	-0.4326
17.8802	-1.4352	981.856	1.9228	-1.2192	-0.4414
6.6378	-6.8172	972.348	1.8922	-1.1755	-0.4457
17.1028	-1.3156	981.198	1.9534	-1.2017	-0.437
5.382	-7.176	972.109	1.8878	-1.1886	-0.437
16.6244	-1.3754	982.275	1.9053	-1.193	-0.4545
6.1594	-5.98	971.929	1.8878	-1.1231	-0.4632
16.8038	-4.485	979.763	1.984	-1.2149	-0.4239
7.8338	-4.6046	972.169	1.9097	-1.2149	-0.4545
16.744	-5.6212	978.747	1.9359	-1.1668	-0.4588
8.7906	-3.4086	979.285	1.8966	-1.1799	-0.3802
11.9002	-7.0564	972.468	1.8791	-1.2105	-0.4414
11.362	-0.1794	979.763	1.949	-1.1275	-0.437
12.4384	-8.0132	972.826	1.8616	-1.1318	-0.4851
13.6344	1.3156	979.763	1.9097	-1.1799	-0.4414
8.372	-9.0896	972.348	1.9009	-1.1056	-0.437
15.249	-0.7774	981.916	1.9446	-1.1449	-0.472
7.6544	-8.6112	973.245	1.9097	-1.1843	-0.3977
15.4882	0.598	981.258	1.9446	-1.2061	-0.4457
6.3388	-7.6544	970.195	1.8966	-1.1712	-0.4501
16.445	0.3588	982.933	1.9534	-1.1843	-0.4545
5.4418	-6.6378	970.793	1.8791	-1.1449	-0.4545
17.2224	-2.691	982.933	1.9009	-1.1799	-0.4763
4.8438	-6.3986	970.255	1.8791	-1.1406	-0.4894
19.0762	-3.887	981.139	1.9709	-1.2586	-0.4545
7.9534	-5.2624	974.262	1.9315	-1.1974	-0.437
13.455	-4.485	976.713	1.8922	-1.2192	-0.4064
9.6278	-4.3654	977.491	1.9009	-1.2236	-0.4064
14.651	-7.1162	976.713	1.8791	-1.1886	-0.4457
8.6112	-0.7176	976.534	1.866	-1.2149	-0.4239
12.7972	-7.8338	974.142	1.9053	-1.1755	-0.4545
14.2324	-0.5382	979.046	1.9578	-1.1799	-0.4588
9.0298	-7.9534	973.544	1.9009	-1.1843	-0.437
13.754	0.0598	981.856	1.9403	-1.2017	-0.4064
6.3388	-9.9268	970.434	1.866	-1.1974	-0.4545
15.0098	1.7342	981.677	1.9709	-1.1755	-0.437
7.6544	-7.475	971.571	1.8572	-1.193	-0.4239
16.744	-0.6578	982.394	1.9796	-1.2061	-0.4545
4.3056	-7.3554	971.152	1.8485	-1.1886	-0.4807
16.8038	-2.1528	983.889	1.9141	-1.2192	-0.4676
6.877	-7.0564	971.032	1.8747	-1.2061	-0.4283
17.1028	-2.392	980.361	1.9184	-1.1886	-0.4457
5.9202	-4.4252	972.348	1.9097	-1.1886	-0.4283
16.6842	-4.6644	979.883	1.8878	-1.1843	-0.4326
7.8936	-4.4252	974.022	1.8835	-1.1712	-0.4414
13.2158	-5.98	976.893	1.9053	-1.1799	-0.4326
12.1992	-4.186	977.85	1.9097	-1.193	-0.4108
14.4716	-7.774	975.637	1.9359	-1.2061	-0.4545
10.9434	0.1196	979.345	1.9403	-1.1581	-0.4763
9.9866	-10.0464	972.408	1.866	-1.1624	-0.4851
14.2922	0.3588	981.737	1.9709	-1.1668	-0.4938
14.2922	-7.3554	970.255	1.8966	-1.1318	-0.4414
7.8936	-0.5382	982.634	1.949	-1.1886	-0.4545
14.7108	-0.5382	970.494	1.8966	-1.1624	-0.4414
7.9534	-8.97	983.291	2.0015	-1.2236	-0.4195
16.3254	0.8372	971.989	1.866	-1.1581	-0.4151
5.8006	-7.6544	971.989	1.8791	-1.2061	-0.4545
15.3686	-1.3156	981.318	1.8835	-1.1668	-0.4457
5.2624	-6.5182	970.434	1.9315	-1.2061	-0.4501
16.6244	-1.3156	982.634	1.8704	-1.1799	-0.437
7.2956	-5.382	969.238	1.984	-1.2105	-0.4414
16.8038	-4.5448	980.421	1.9446	-1.1581	-0.4851
5.681	-5.3222	974.8	1.8835	-1.1799	-0.4414
15.4882	-5.681	977.909	1.9272	-1.1755	-0.3933
10.7042	-3.4684	977.132	1.8835	-1.193	-0.4501
11.8404	-6.9368	974.082	1.9446	-1.2061	-0.4326
11.362	-0.0598	978.507	1.8966	-1.1624	-0.4632
11.7208	-8.9102	974.501	1.9359	-1.2105	-0.4851
11.8404	-0.598	980.72	1.8878	-1.1581	-0.4414
9.269	-9.6278	971.81	1.9578	-1.2061	-0.4632
16.0862	-0.3588	981.198	1.866	-1.1843	-0.4545
9.269	-8.97	972.169	1.9403	-1.1886	-0.4151
15.9068	0.1794	981.617	1.9009	-1.1624	-0.4588
4.8438	-8.671	969.717	1.9796	-1.2149	-0.4545
17.1626	-0.7176	984.129	1.8704	-1.1755	-0.4414
6.1594	-8.073	969.119	1.8704	-1.1624	-0.3846
16.5048	-1.3754	982.693	1.9534	-1.1799	-0.4326
6.3986	-6.6976	970.853	1.8966	-1.1799	-0.4588
16.5646	-2.6312	981.976	1.949	-1.2105	-0.4239
4.6046	-3.2292	973.843	1.8616	-1.1712	-0.437
13.8736	-4.8438	977.252	1.9053	-1.1799	-0.437
7.2358	-2.3322	975.159	1.9272	-1.1799	-0.4151
14.8902	-5.5614	977.132	1.9359	-1.2323	-0.437
11.2424	-2.0332	978.208	1.9228	-1.1799	-0.4239
11.0032	-7.5348	974.62	1.9141	-1.1886	-0.4501
12.3786	-1.4352	978.866	1.9315	-1.1581	-0.402
11.3022	-9.568	975.218	1.8966	-1.1799	-0.4632
15.0098	-0.299	979.703	1.9315	-1.1799	-0.4545
9.1494	-8.7906	970.733	1.8878	-1.1668	-0.4763
16.2058	0.1196	982.155	1.949	-1.2367	-0.4851
6.279	-8.97	968.999	1.8572	-1.1537	-0.4326
16.3254	-1.3156	983.889	1.9752	-1.1668	-0.4239
6.7574	-9.6876	970.195	1.8835	-1.1362	-0.4064
18.5978	-1.794	983.291	1.9796	-1.1755	-0.4676
5.7408	-5.2624	972.288	1.9359	-1.1537	-0.4414
15.6676	-2.9302	979.763	1.9228	-1.193	-0.4545
4.6046	-4.6046	973.424	1.9184	-1.2017	-0.4414
15.0696	-3.6478	980.301	1.9228	-1.1581	-0.4851
7.9534	-4.0664	973.066	1.8747	-1.1624	-0.4151
14.1128	-4.9634	977.311	1.9097	-1.1668	-0.4632
9.4484	-1.6744	975.936	1.9053	-1.1755	-0.4545
13.0364	-7.9534	978.507	1.9184	-1.1886	-0.402
10.6444	-1.1362	976.654	1.8835	-1.2236	-0.3715
9.8072	-8.2524	973.903	1.866	-1.1755	-0.4239
14.7108	-0.2392	981.019	1.9315	-1.2411	-0.4414
9.1494	-7.9534	971.63	1.8441	-1.1799	-0.4064
14.5912	0.299	981.677	1.9578	-1.2017	-0.4151
6.578	-10.764	971.391	1.9009	-1.1624	-0.4151
16.3852	-1.0764	982.813	1.8791	-1.2236	-0.4414
7.5348	-7.8338	972.228	1.8572	-1.1581	-0.4064
17.2822	-2.691	981.438	1.949	-1.2105	-0.437
5.083	-6.877	969.537	1.866	-1.1712	-0.4283
17.7008	-1.7342	982.095	1.9578	-1.2192	-0.4545
6.0398	-6.2192	972.049	1.9053	-1.1668	-0.437
15.1892	-3.9468	979.644	1.9228	-1.1799	-0.4151
7.8338	-4.5448	973.185	1.9228	-1.1799	-0.4326
16.5048	-6.279	979.584	1.9665	-1.2192	-0.3977
9.6278	-1.0166	975.458	1.9053	-1.1886	-0.4283
10.8836	-5.7408	974.919	1.8704	-1.193	-0.4676
11.063	-0.8372	977.909	1.9141	-1.2236	-0.4414
10.6444	-7.2358	974.86	1.8572	-1.1581	-0.4195
13.3354	0.4186	979.823	1.9315	-1.1624	-0.4545
9.5082	-8.8504	973.305	1.9184	-1.1974	-0.4414
15.249	-0.4784	980.122	1.9359	-1.2454	-0.4414
8.5514	-8.8504	971.989	1.8878	-1.228	-0.4283
14.651	-1.1362	983.291	1.9141	-1.1843	-0.4588
6.279	-8.7308	970.016	1.8398	-1.1974	-0.4457
17.4018	0.0598	982.634	1.9578	-1.2323	-0.4588
6.8172	-8.7308	970.195	1.8791	-1.2149	-0.4414
17.8802	-2.3322	981.557	2.0146	-1.2149	-0.4151
5.083	-7.7142	971.391	1.9272	-1.1406	-0.4283
18.0596	-5.083	982.036	1.949	-1.2061	-0.4501
6.3986	-4.485	972.767	1.8878	-1.1755	-0.4501
13.9334	-4.5448	977.61	1.8835	-1.1537	-0.4414
8.9102	-3.588	974.919	1.9359	-1.1624	-0.4807
14.651	-5.0232	977.79	1.9097	-1.1668	-0.4676
10.4052	-2.2126	977.969	1.9665	-1.1493	-0.4108
10.5248	-8.1328	976.594	1.8747	-1.1012	-0.4195
13.2756	-1.5548	977.61	1.9097	-1.1668	-0.4545
11.362	-7.2956	974.8	1.9228	-1.1537	-0.4588
14.1128	0.9568	979.823	1.9315	-1.2192	-0.4632
6.9966	-8.9102	971.571	1.8223	-1.2061	-0.3846
14.5314	0.0598	982.813	1.9578	-1.1974	-0.4326
6.7574	-9.0896	970.614	1.8747	-1.1581	-0.472
16.6244	0.2392	981.677	1.9796	-1.2061	-0.4414
6.4584	-7.475	971.511	1.9621	-1.2105	-0.4151
18.0596	-2.8106	981.916	1.9359	-1.1886	-0.437
5.6212	-7.2956	973.664	1.8616	-1.1362	-0.437
15.6078	-4.3056	979.943	1.8791	-1.2192	-0.4326
6.2192	-5.0232	973.066	1.9446	-1.193	-0.4195
16.3852	-2.8106	978.687	1.8747	-1.2367	-0.4894
7.475	-2.99	972.707	1.8485	-1.2017	-0.4851
12.7972	-7.2956	977.192	1.9228	-1.1843	-0.4501
10.465	-3.588	976.833	1.9141	-1.228	-0.4195
12.9766	-7.0564	977.85	1.9315	-1.2105	-0.4064
12.0796	-1.0166	977.85	1.9315	-1.1712	-0.4108
9.9866	-7.0564	971.929	1.8485	-1.2061	-0.4545
12.6178	1.9136	980.421	1.9578	-1.228	-0.4457
8.7906	-8.8504	973.365	1.9097	-1.1712	-0.3933
13.8736	0.299	981.198	1.9403	-1.1755	-0.4457
6.4584	-9.9866	971.152	1.8704	-1.1537	-0.3889
18.1194	-1.4352	981.916	1.9228	-1.2149	-0.4108
7.8338	-7.0564	973.006	1.8747	-1.2323	-0.4501
16.6842	-1.3156	980.541	1.9315	-1.193	-0.4064
4.3654	-7.6544	972.228	1.9097	-1.2367	-0.4545
16.8038	-3.0498	980.242	1.9315	-1.228	-0.3977
6.0996	-5.0232	971.69	1.8922	-1.1712	-0.4151
16.2058	-4.3654	979.883	1.9359	-1.1712	-0.4326
8.4318	-4.3654	973.664	1.9184	-1.1799	-0.4108
14.7706	-5.5016	979.105	1.949	-1.1712	-0.4501
9.3288	-3.1694	977.79	1.949	-1.2149	-0.437
11.6012	-7.2358	974.441	1.8922	-1.2323	-0.4588
10.3454	0	978.388	1.9446	-1.2411	-0.4938
12.1992	-7.774	973.125	1.8747	-1.1886	-0.4632
13.8736	0.299	980.84	1.9446	-1.193	-0.4326
8.0132	-9.568	971.929	1.9009	-1.1668	-0.4457
15.249	-0.8372	981.796	1.9446	-1.1974	-0.4414
9.4484	-9.4484	972.288	1.866	-1.1712	-0.4283
15.9666	0.8372	980.062	1.9141	-1.1799	-0.4501
7.8936	-8.7906	971.391	1.8616	-1.2017	-0.437
16.744	0.1196	981.677	1.9665	-1.2498	-0.4108
5.0232	-6.8172	970.793	1.9315	-1.1668	-0.4457
16.9234	-2.8106	983.291	2.0102	-1.1755	-0.4326
5.7408	-7.2358	971.032	1.8835	-1.1755	-0.4108
18.3586	-2.6312	980.66	1.9971	-1.2192	-0.4676
8.4916	-5.083	975.517	1.9621	-1.2105	-0.437
13.8138	-3.6478	977.371	1.8704	-1.1668	-0.4151
5.8604	-2.392	975.458	1.9665	-1.1755	-0.4326
13.6942	-6.4584	977.252	1.9665	-1.193	-0.4545
10.0464	-1.4352	977.072	1.8966	-1.2192	-0.437
11.8404	-6.8172	974.142	1.8922	-1.1581	-0.437
13.754	-1.6744	978.866	1.9009	-1.2105	-0.4632
10.7042	-9.0896	974.68	1.8572	-1.193	-0.4632
11.9002	0.4186	980.72	1.8922	-1.2323	-0.4283
7.5946	-10.5846	969.836	1.8354	-1.1624	-0.4501
17.043	0.8372	982.634	1.9621	-1.2061	-0.4982
7.774	-7.6544	971.152	1.8835	-1.1974	-0.4457
15.9666	-1.0166	983.112	1.9971	-1.1537	-0.4457
4.9036	-7.8338	971.451	1.8398	-1.1886	-0.472
17.7606	-2.6312	982.454	1.9053	-1.2498	-0.4501
7.1162	-6.8172	972.647	1.8835	-1.1449	-0.4195
17.342	-3.588	979.584	1.8922	-1.1581	-0.4151
5.7408	-3.7674	972.826	1.9315	-1.1624	-0.4588
15.9666	-4.186	979.584	1.9403	-1.1843	-0.4632
7.4152	-3.9468	974.68	1.8835	-1.2454	-0.4894
12.259	-5.8604	976.534	1.9752	-1.2105	-0.4982
11.7208	-3.5282	977.311	1.9665	-1.2061	-0.4545
14.2922	-6.9368	975.996	1.9184	-1.2105	-0.4676
11.661	0.598	979.404	1.9097	-1.2192	-0.4632
9.1494	-8.7308	971.929	1.8791	-1.1799	-0.4151
12.6178	0.4784	981.856	1.9446	-1.228	-0.4064
7.774	-8.9102	971.511	1.8485	-1.1755	-0.437
15.6078	-0.299	981.677	1.9927	-1.1624	-0.3889
8.372	-8.2524	970.973	1.9184	-1.1712	-0.4239
16.6842	-0.4186	982.693	1.9446	-1.2149	-0.4414
7.0564	-8.1926	973.006	1.8878	-1.1449	-0.4588
15.7872	-2.691	980.002	1.8922	-1.193	-0.4239
5.1428	-6.578	971.87	1.9097	-1.1668	-0.4501
18.9566	-3.0498	981.796	1.9752	-1.1668	-0.472
6.9368	-5.382	971.272	1.8966	-1.1668	-0.4326
15.0098	-4.8438	980.062	2.0015	-1.1537	-0.4195
7.774	-5.8006	973.963	1.9272	-1.1406	-0.3889
15.1294	-5.3222	979.345	1.9141	-1.2149	-0.4239
9.2092	-2.6312	976.175	1.8616	-1.2542	-0.3802
12.3786	-6.9368	973.604	1.8878	-1.228	-0.437
11.3022	-0.4784	979.464	1.9534	-1.2105	-0.4283
10.5248	-7.4152	972.587	1.8878	-1.1755	-0.4283
12.6776	0.2392	981.139	1.9709	-1.1537	-0.4151
8.4916	-8.8504	972.408	1.8704	-1.1362	-0.4283
14.8304	0.299	981.856	1.9578	-1.2017	-0.4938
8.9102	-8.671	973.365	1.8966	-1.1974	-0.402
16.0264	-0.0598	981.497	1.9578	-1.2236	-0.4457
5.8604	-8.073	970.135	1.866	-1.2061	-0.4457
17.1626	-1.196	984.069	1.9534	-1.2192	-0.4283
5.98	-7.2358	970.674	1.8398	-1.1624	-0.4283
16.5646	-1.8538	981.198	1.9403	-1.1755	-0.4326
6.9966	-7.1162	970.674	1.8878	-1.1362	-0.437
17.9998	-4.2458	981.438	1.9053	-1.2017	-0.4501
6.0996	-3.9468	973.484	1.8835	-1.1668	-0.4283
13.3354	-6.0398	978.866	1.9141	-1.1624	-0.4545
8.5514	-3.4684	975.159	1.9359	-1.2149	-0.4326
13.9932	-4.4252	975.577	1.9053	-1.2105	-0.4632
12.1394	-2.0332	978.747	1.9359	-1.2017	-0.472
11.2424	-7.9534	974.022	1.9184	-1.1886	-0.437
11.3022	-0.897	980.421	1.9883	-1.2061	-0.4195
10.9434	-9.7474	974.561	1.9578	-1.1974	-0.4501
14.5912	0.9568	980.242	1.9272	-1.193	-0.4501
7.5348	-7.8936	970.135	1.8835	-1.1712	-0.4239
17.1028	0.3588	982.634	1.9796	-1.1712	-0.4807
6.6378	-8.9102	971.69	1.8485	-1.1799	-0.472
15.4882	-0.9568	982.693	1.9184	-1.1886	-0.4632
6.2192	-8.0132	970.315	1.9097	-1.1231	-0.4676
18.4782	-2.5116	983.172	1.9272	-1.2236	-0.4545
6.9966	-5.3222	971.212	1.9534	-1.1799	-0.4414
16.5048	-3.588	981.378	1.9359	-1.2236	-0.3933
5.1428	-5.1428	972.946	1.8966	-1.2717	-0.402
15.1294	-4.1262	978.806	1.9141	-1.2017	-0.472
9.0298	-4.6046	974.62	1.9359	-1.1712	-0.4457
12.9766	-5.9202	976.773	1.9665	-1.1799	-0.4807
11.3022	-2.7508	977.311	1.9752	-1.1318	-0.4851
12.9766	-7.475	975.816	1.9446	-1.11	-0.4676
10.1062	-0.8372	978.926	1.8922	-1.1886	-0.4588
8.9102	-9.4484	972.228	1.8485	-1.2017	-0.437
14.8304	0.897	980.481	1.9534	-1.1974	-0.4414
9.1494	-8.7906	971.272	1.866	-1.1318	-0.4151
15.3686	0	981.796	1.984	-1.1755	-0.4195
7.2956	-9.4484	972.348	1.9228	-1.1012	-0.4239
16.3852	-1.3156	982.992	1.949	-1.1537	-0.4151
6.2192	-7.2358	972.647	1.9009	-1.193	-0.4151
16.9832	-1.1362	980.421	1.9009	-1.228	-0.4457
5.98	-5.8604	971.152	1.866	-1.1886	-0.4326
16.8038	-1.8538	982.275	1.9141	-1.1974	-0.4632
5.8604	-6.877	971.81	1.8747	-1.1755	-0.4763
15.3686	-4.2458	979.046	1.9446	-1.1974	-0.437
8.2524	-5.2624	974.082	1.9403	-1.2149	-0.4807
16.9234	-5.5016	978.687	1.9883	-1.2017	-0.4414
9.4484	-2.0332	976.175	1.9228	-1.2192	-0.3627
10.166	-7.8338	974.321	1.8966	-1.2149	-0.4414
11.9002	-1.3156	979.703	1.9709	-1.193	-0.4501
11.1826	-7.8936	973.963	1.8966	-1.1449	-0.4064
12.4384	0.7774	978.986	1.949	-1.1799	-0.4894
9.568	-9.5082	973.365	1.9403	-1.11	-0.472
16.6244	-0.9568	981.019	1.9709	-1.193	-0.4632
7.5348	-7.0564	973.664	1.8835	-1.1974	-0.4239
15.6078	-1.6744	981.378	1.9097	-1.2323	-0.4501
6.3986	-8.9102	970.434	1.8572	-1.1886	-0.472
16.146	1.1362	982.275	1.9315	-1.2323	-0.4326
7.176	-8.1328	970.973	1.8835	-1.2061	-0.4283
18.6576	-2.5714	984.188	1.9228	-1.2105	-0.4239
3.6478	-6.3986	969.358	1.8572	-1.193	-0.4632
17.5812	-4.186	982.394	1.9534	-1.2017	-0.472
7.8338	-5.5614	974.022	1.8835	-1.2061	-0.4414
13.9334	-2.9302	975.816	1.8922	-1.1843	-0.437
8.1926	-2.99	976.713	1.9315	-1.1886	-0.4108
14.95	-6.877	976.594	1.9009	-1.2017	-0.402
9.3886	-1.1362	976.414	1.8922	-1.2017	-0.3977
10.7042	-8.073	976.594	1.8922	-1.1624	-0.4239
14.1726	-1.3754	978.208	1.9578	-1.2017	-0.4326
10.2856	-6.877	974.321	1.8835	-1.1799	-0.4457
14.4716	-0.897	980.301	1.9359	-1.2236	-0.4588
8.0132	-9.2092	972.169	1.8835	-1.1886	-0.4545
14.352	0.598	982.394	1.9141	-1.2323	-0.3977
8.3122	-8.7308	970.434	1.8529	-1.1712	-0.4239
17.2224	-0.4186	982.813	1.9315	-1.1712	-0.3889
5.8006	-8.4318	969.537	1.8966	-1.1449	-0.4283
18.7174	-1.7342	983.291	1.9621	-1.2454	-0.4064
6.4584	-6.9368	973.484	1.9184	-1.1624	-0.4414
15.548	-2.8106	980.72	1.8878	-1.1974	-0.4195
4.8438	-5.5614	972.109	1.9315	-1.1624	-0.3933
16.5048	-4.3056	978.806	1.9578	-1.2105	-0.4632
8.1926	-2.8106	974.979	1.9009	-1.2061	-0.5069
13.6344	-5.7408	977.61	1.9403	-1.1755	-0.4545
9.269	-3.6478	976.773	1.8922	-1.1755	-0.3758
11.6012	-7.475	976.953	1.9097	-1.1668	-0.4457
11.1228	-1.0764	978.268	1.9359	-1.1843	-0.4676
10.9434	-7.4152	973.664	1.866	-1.2323	-0.4195
12.9766	1.3156	979.285	1.9315	-1.2454	-0.3977
8.4318	-9.3886	972.527	1.9053	-1.1755	-0.4326
14.95	-1.196	981.497	1.8878	-1.1624	-0.437
7.774	-8.7906	971.212	1.8922	-1.1668	-0.4807
18.7772	-1.0764	982.215	1.9446	-1.2498	-0.4545
7.7142	-8.7906	971.75	1.9009	-1.1843	-0.4588
16.0264	-1.196	981.079	1.949	-1.2105	-0.4064
4.9036	-7.8338	972.408	1.9315	-1.1406	-0.4283
17.5812	-2.0332	981.019	1.9665	-1.2236	-0.4283
5.3222	-5.7408	972.587	1.8616	-1.1624	-0.4414
16.8038	-4.8438	978.806	1.9578	-1.1799	-0.4894
8.1328	-4.0664	973.963	1.9315	-1.1624	-0.3977
16.0264	-4.784	978.268	1.9272	-1.2061	-0.4064
8.7308	-2.5714	976.355	1.9009	-1.193	-0.3846
11.1228	-7.5348	975.218	1.9009	-1.1449	-0.4632
10.4052	-0.598	978.866	1.9097	-1.1843	-0.4501
12.4384	-7.5946	973.903	1.8791	-1.1712	-0.4501
12.857	-0.5382	980.421	1.9184	-1.2105	-0.4283
8.372	-8.6112	971.81	1.8966	-1.1843	-0.4807
15.249	-1.0166	982.813	1.9272	-1.2061	-0.4894
7.9534	-9.5082	972.468	1.8572	-1.2149	-0.4501
15.9666	1.3754	980.899	1.8616	-1.2454	-0.437
6.4584	-7.8936	970.913	1.9009	-1.2105	-0.4501
17.8802	-0.897	983.112	1.9621	-1.2236	-0.5069
4.9036	-8.073	971.152	1.9053	-1.2105	-0.4807
16.3852	-3.0498	982.155	2.0058	-1.1493	-0.4283
6.8172	-6.877	972.707	1.9228	-1.1537	-0.4501
18.7772	-2.691	980.6	1.9359	-1.2454	-0.472
7.5348	-3.887	974.082	1.9141	-1.1974	-0.4108
14.8304	-6.3388	976.833	1.8835	-1.1668	-0.4545
7.8936	-2.0332	976.713	1.9534	-1.1974	-0.4239
13.754	-6.877	976.056	1.9184	-1.1668	-0.4108
12.0198	-1.9734	977.012	1.9141	-1.1974	-0.4283
10.7042	-7.6544	973.185	1.8791	-1.1668	-0.4151
12.7972	-0.4784	980.301	1.984	-1.1799	-0.4195
9.3886	-8.4916	974.381	1.9228	-1.1493	-0.4195
12.9766	0.8372	980.84	1.8878	-1.1799	-0.4108
6.9966	-8.9102	969.777	1.8791	-1.1581	-0.3758
16.3852	0.9568	984.248	1.9752	-1.1755	-0.4545
7.176	-7.8936	969.597	1.8704	-1.1712	-0.4676
17.5812	-0.7176	983.291	1.9621	-1.1668	-0.4851
5.8604	-8.4916	970.076	1.8922	-1.1537	-0.4588
17.8204	-2.4518	983.291	1.9228	-1.2192	-0.472
6.578	-6.279	971.571	1.8835	-1.2061	-0.4108
16.6244	-3.4684	979.763	1.8922	-1.193	-0.4457
6.0996	-3.9468	972.707	1.8966	-1.1493	-0.4195
17.1028	-3.7674	979.225	1.9709	-1.1493	-0.4588
7.774	-4.7242	976.893	1.9141	-1.1187	-0.4632
13.2756	-5.9202	976.355	1.8966	-1.1231	-0.4195
10.2258	-3.2292	976.295	1.949	-1.1712	-0.437
14.2922	-7.2358	975.996	1.9446	-1.1624	-0.4501
11.3022	0	978.089	1.9009	-1.2236	-0.4763
9.5082	-7.774	973.664	1.9009	-1.1712	-0.4588
12.7972	-0.0598	981.617	1.9578	-1.1449	-0.4414
8.1926	-8.4916	970.853	1.866	-1.1318	-0.4108
15.6676	0.897	982.933	2.0058	-1.2542	-0.4239
8.8504	-8.3122	971.092	1.9053	-1.2017	-0.4894
18.4782	0.4784	983.77	1.949	-1.2454	-0.4414
5.1428	-8.671	971.571	1.8747	-1.1712	-0.402
15.6078	-2.093	981.318	1.9359	-1.1799	-0.4195
15.6078	-7.0564	970.793	1.8747	-1.1493	-0.4151
4.9036	-7.0564	981.557	1.949	-1.1275	-0.4326
18.5978	-1.5548	971.391	1.9228	-1.1275	-0.4414
6.877	-5.6212	979.883	1.9578	-1.1624	-0.4676
15.0098	-4.6046	973.006	1.9272	-1.1799	-0.4326
6.8172	-5.681	973.006	1.9359	-1.2017	-0.4195
15.847	-6.1594	979.644	1.8966	-1.2149	-0.437
8.5514	-3.1096	975.637	1.8922	-1.1581	-0.4414
12.857	-6.0398	975.218	1.949	-1.1755	-0.4807
10.8238	-0.7176	978.687	1.9141	-1.1449	-0.4457
10.6444	-7.6544	973.604	1.9883	-1.1886	-0.4108
13.3952	-0.897	980.6	1.9053	-1.1187	-0.5069
9.0896	-10.4052	972.049	1.9315	-1.228	-0.4501
16.2058	0.2392	981.318	1.9228	-1.1974	-0.4414
8.9102	-7.176	972.468	1.9446	-1.2149	-0.4239
16.9234	0.8372	982.215	1.8485	-1.2149	-0.4588
5.5614	-7.5348	970.016	1.9141	-1.1886	-0.437
19.6144	1.9136	982.036	1.8704	-1.1624	-0.4545
6.2192	-9.269	967.863	2.0102	-1.2454	-0.4763
19.2556	0.6578	981.557	1.9097	-1.1231	-0.4763
5.2026	-7.475	974.68	1.9403	-1.1799	-0.4414
18.538	-3.3488	983.889	1.8922	-1.1318	-0.4414
2.392	-5.8604	976.235	1.831	-1.1493	-0.4457
15.1294	-5.3222	975.996	1.831	-1.1843	-0.4982
8.97	-2.8106	974.082	1.9315	-1.2411	-0.4457
19.0164	-1.7342	968.999	1.8398	-1.2411	-0.4064
11.4816	-1.1362	975.996	1.984	-1.2367	-0.4064
18.1194	-5.083	967.923	1.9184	-1.1668	-0.4239
20.4516	3.4086	985.743	2.0714	-1.2804	-0.3802
20.5712	-0.2392	965.83	1.8878	-1.1974	-0.3977
27.5678	10.1062	975.816	1.9709	-1.2498	-0.4151
16.6842	2.1528	967.803	1.9709	-1.2848	-0.4195
34.8036	12.9168	976.534	2.15	-1.3066	-0.4108
18.9566	6.279	980.899	2.067	-1.2892	-0.3889
27.1492	4.1262	974.74	2.0146	-1.2542	-0.4151
28.0462	12.4982	983.351	2.0364	-1.2892	-0.3933
29.5412	7.3554	969.657	1.9534	-1.3416	-0.4588
35.0428	18.7772	979.046	2.0801	-1.3241	-0.4501
29.9	11.7806	970.614	1.9709	-1.3678	-0.472
30.5578	9.0896	983.411	2.0932	-1.311	-0.4545
19.0164	8.1926	989.869	2.0626	-1.276	-0.4108
31.7538	7.0564	976.474	1.9097	-1.228	-0.4457
29.302	16.0264	986.82	1.9578	-1.2629	-0.4195
26.2522	8.6112	967.026	1.8092	-1.228	-0.4938
37.3152	17.1028	980.421	1.9796	-1.2323	-0.4414
30.0196	12.6776	968.521	1.8529	-1.1886	-0.4326
32.292	5.0232	979.763	2.0015	-1.193	-0.4676
19.3752	6.4584	991.364	2.0233	-1.2673	-0.4501
32.3518	6.7574	973.843	1.7917	-1.1668	-0.4239
31.9332	16.0862	984.009	1.9009	-1.2017	-0.472
25.5346	9.3886	960.388	1.7305	-1.2192	-0.4545
35.581	18.7772	972.169	1.9665	-1.2498	-0.4632
29.1824	13.5746	970.733	1.9927	-1.2498	-0.4326
33.6674	6.9368	980.062	2.067	-1.276	-0.4239
17.8802	6.877	994.833	2.1063	-1.2717	-0.3933
25.6542	3.9468	977.909	1.8048	-1.1581	-0.4283
32.1724	16.9234	980.6	1.8441	-1.2367	-0.4283
29.1824	13.455	960.747	1.748	-1.2411	-0.4195
37.1956	19.5546	969.059	1.9709	-1.2411	-0.4894
29.2422	13.3354	973.424	2.0539	-1.2323	-0.472
31.8136	3.5282	983.77	2.1195	-1.2848	-0.4414
19.1958	3.887	996.986	2.0408	-1.2717	-0.4501
27.0894	3.2292	977.969	1.7261	-1.193	-0.4414
33.9066	16.0862	979.644	1.7786	-1.228	-0.4501
31.3352	16.3852	958.355	1.6956	-1.2586	-0.5069
38.8102	19.6144	964.753	1.9053	-1.2454	-0.4938
29.1824	12.4982	971.69	2.0889	-1.2498	-0.4588
31.0362	1.5548	983.052	2.1763	-1.2105	-0.4239
25.5346	7.1162	997.584	2.1675	-1.2105	-0.3627
27.1492	4.5448	978.268	1.783	-1.1755	-0.4108
31.7538	16.0862	978.747	1.783	-1.2105	-0.4195
31.2754	17.8204	960.029	1.7174	-1.2498	-0.4414
41.8002	22.6044	961.405	1.9053	-1.2629	-0.4763
30.0794	16.9832	971.989	2.0976	-1.2454	-0.4545
25.7738	1.1362	986.102	2.1631	-1.2804	-0.3715
23.2622	8.9102	999.916	2.0364	-1.2673	-0.4283
29.4814	9.7474	982.574	1.7043	-1.2236	-0.472
30.7372	15.249	978.388	1.713	-1.1799	-0.4588
26.7306	15.7872	961.225	1.7043	-1.2848	-0.5244
46.943	22.8436	964.634	1.8704	-1.193	-0.4676
30.0794	12.1394	972.228	2.0801	-1.1537	-0.4938
33.1292	-0.4186	986.401	2.0889	-1.228	-0.4676
11.4816	-7.5348	997.344	2.0364	-1.2017	-0.402
36.6574	3.5282	984.129	1.6475	-1.1624	-0.3802
27.1492	10.465	975.159	1.6082	-1.2367	-0.4151
26.312	5.681	962.481	1.748	-1.2629	-0.4108
13.8138	9.6278	973.066	1.8922	-1.1974	-0.3758
25.9532	3.4684	968.88	1.9709	-1.0925	-0.3627
15.3088	1.7342	992.022	2.0801	-1.0706	-0.3627
6.0996	-13.9932	981.079	1.9228	-1.1406	-0.3933
5.7408	-5.0232	994.594	1.8704	-1.1187	-0.4545
8.4318	-8.8504	974.8	1.6825	-1.0925	-0.5463
16.8636	4.4252	979.165	1.6868	-1.1581	-0.5157
-4.6046	-10.0464	966.547	1.665	-1.0925	-0.5113
5.4418	-8.9102	975.398	1.8135	-1.1012	-0.5244
2.1528	-11.063	978.029	1.8441	-1.1187	-0.4938
9.9866	-12.857	971.092	1.7742	-1.1318	-0.4982
3.2292	-12.0796	977.311	1.8223	-1.1493	-0.472
4.4252	-18.9566	963.438	1.7611	-1.1712	-0.5157
7.2358	-10.1062	977.79	1.8878	-1.193	-0.4894
7.774	-15.7872	971.032	1.9097	-1.1493	-0.4763
9.7474	-10.4052	977.551	1.9184	-1.1755	-0.3802
0.7774	-16.445	969.956	1.9009	-1.1406	-0.3452
8.8504	-9.4484	978.687	1.9359	-1.1974	-0.3627
-0.0598	-11.8404	978.926	1.9097	-1.2323	-0.4108
7.9534	-9.6278	978.268	1.8747	-1.1755	-0.4326
-5.8006	-12.9766	978.866	1.8922	-1.1318	-0.3758
2.8106	-12.259	975.278	1.8616	-1.1755	-0.3802
-3.1694	-9.9268	982.215	1.9272	-1.1187	-0.4414
1.3156	-11.8404	970.315	1.8048	-1.1362	-0.4501
-0.9568	-3.3488	978.627	1.8354	-1.1668	-0.5025
-0.7774	-15.7872	970.255	1.7567	-1.1843	-0.5069
4.8438	-5.2624	978.986	1.8485	-1.2542	-0.472
-1.495	-17.1028	971.87	1.7742	-1.2804	-0.4851
8.7906	-10.8836	979.883	1.9009	-1.3285	-0.4501
0.6578	-20.8702	975.458	1.7873	-1.2498	-0.437
8.4318	-14.1128	981.677	1.8529	-1.2411	-0.4545
-1.6744	-20.8104	977.371	1.8354	-1.2498	-0.4632
11.661	-16.5048	982.574	1.8922	-1.2061	-0.4283
-3.9468	-21.1094	978.507	1.8485	-1.1362	-0.4151
4.7242	-19.9134	975.816	1.8835	-1.1012	-0.3889
-2.1528	-22.0064	976.115	1.8529	-1.0357	-0.3977
2.7508	-19.0164	973.963	1.9141	-1.0619	-0.3671
-5.98	-15.9068	975.517	1.9403	-1.0838	-0.4283
-5.98	-21.2888	971.69	1.9403	-1.0969	-0.4064
-7.7142	-13.5746	976.654	1.984	-1.1143	-0.4195
-11.1826	-19.4948	974.321	2.0277	-1.0619	-0.4545
-8.0132	-12.3188	977.371	1.9796	-1.1362	-0.4151
-14.4716	-20.8702	974.501	1.949	-1.1537	-0.4588
-9.3288	-14.8902	978.926	1.9446	-1.1537	-0.4938
-16.5646	-25.4748	981.976	1.9359	-1.1449	-0.5113
-9.568	-20.1526	976.773	1.8004	-1.1537	-0.5113
-19.435	-28.405	977.132	1.8747	-1.1318	-0.5725
-6.9966	-25.5944	977.85	1.8398	-1.2017	-0.5463
-21.7672	-31.5146	976.056	1.7393	-1.2017	-0.4851
-10.1062	-29.601	976.175	1.7261	-1.1843	-0.4807
-24.7572	-34.385	976.833	1.7218	-1.1275	-0.4283
-11.7806	-33.189	976.534	1.713	-1.2149	-0.4195
-22.724	-34.2056	978.029	1.7436	-1.1581	-0.3933
-16.146	-35.9398	972.348	1.6693	-1.1406	-0.3889
-23.9798	-35.4614	977.61	1.7961	-1.1799	-0.4239
-18.9566	-39.5278	974.62	1.8004	-1.2061	-0.3758
-24.4582	-33.488	980.062	1.7961	-1.1537	-0.3365
-26.91	-42.2188	971.69	1.7261	-1.0881	-0.3889
-22.6044	-33.787	976.833	1.8572	-1.1712	-0.4283
-30.1392	-42.159	977.73	1.8835	-1.0969	-0.4588
-30.0196	-36.478	978.268	1.9097	-1.1012	-0.4457
-35.2222	-46.345	978.388	1.8922	-1.0663	-0.4894
-16.0264	-30.6774	975.936	1.8441	-1.027	-0.5025
-17.5812	-31.8136	969.358	1.8966	-1.0095	-0.5069
5.4418	-15.4284	971.152	1.9752	-1.1537	-0.4676
1.8538	-12.857	972.886	2.1326	-1.1581	-0.4588
26.1326	1.2558	968.76	2.0189	-1.2804	-0.4283
15.0696	4.6644	968.521	2.1588	-1.3154	-0.4108
32.0528	10.1062	967.504	2.1763	-1.4203	-0.4064
25.7738	13.5746	973.903	2.3117	-1.4246	-0.3889
35.581	14.053	975.398	2.2768	-1.4552	-0.3715
30.6176	15.4284	982.215	2.3248	-1.4727	-0.4108
32.292	11.362	983.83	2.2506	-1.4334	-0.4195
26.9698	12.4982	987.717	2.15	-1.4334	-0.4326
21.0496	3.289	992.082	2.0932	-1.3897	-0.3977
13.9334	3.1096	985.265	1.8922	-1.276	-0.4414
3.289	-9.1494	982.095	1.831	-1.2367	-0.4807
6.5182	-6.0996	978.747	1.6693	-1.1799	-0.4807
-0.7774	-15.7274	974.022	1.748	-1.0925	-0.4894
6.6378	-12.0796	968.88	1.6475	-0.9964	-0.5244
1.196	-21.4682	965.77	1.7524	-0.9832	-0.472
13.455	-13.156	966.787	1.6606	-1.075	-0.5113
8.5514	-13.6942	965.471	1.8223	-1.1056	-0.4763
18.3586	-4.186	974.202	1.8704	-1.1755	-0.4807
7.9534	-5.083	971.929	1.9359	-1.2236	-0.4326
16.8636	1.9734	984.009	2.0015	-1.2804	-0.4195
10.2258	-0.4186	980.481	1.9621	-1.3023	-0.4283
19.435	1.0166	988.315	2.0626	-1.3066	-0.402
12.9766	1.196	984.487	2.0146	-1.2105	-0.402
17.342	-2.5116	986.7	2.0102	-1.2454	-0.4108
9.568	-1.495	981.378	1.8922	-1.2105	-0.4108
10.8836	-7.475	973.424	1.8922	-1.1843	-0.4807
12.0198	-3.3488	973.544	1.8616	-1.1755	-0.4588
11.661	-10.2856	967.504	1.8441	-1.1624	-0.4763
11.7806	-3.588	970.614	1.8791	-1.1974	-0.4545
9.2092	-14.1726	966.906	1.9315	-1.1231	-0.4588
15.7872	-5.382	974.142	1.9228	-1.2149	-0.4807
10.1062	-10.1062	971.989	1.9184	-1.2061	-0.4195
18.538	-3.1096	980.78	1.9446	-1.2236	-0.4064
8.0132	-7.774	975.159	1.9534	-1.2236	-0.3889
17.5812	1.0764	986.461	1.9752	-1.2892	-0.3977
6.8172	-4.6644	978.029	2.0146	-1.2149	-0.4064
17.1028	-0.299	984.846	1.9534	-1.1668	-0.4239
5.98	-4.4252	977.67	1.9752	-1.1581	-0.4283
18.1194	-3.2292	982.095	1.9578	-1.1974	-0.4632
6.9368	-3.8272	974.082	1.8747	-1.1668	-0.437
14.651	-5.083	974.68	1.8922	-1.1668	-0.4807
8.4916	-4.6644	974.321	1.8704	-1.1755	-0.4326
12.9168	-7.774	972.408	1.8354	-1.1843	-0.437
10.465	-3.8272	973.544	1.8223	-1.1581	-0.4763
13.5746	-9.2092	970.135	1.8922	-1.1537	-0.4632
16.3254	-2.3322	977.61	1.9141	-1.2017	-0.4283
12.0198	-7.7142	974.86	1.9621	-1.1668	-0.4457
13.8736	-0.4784	981.796	1.9446	-1.2061	-0.3889
8.4318	-9.6876	974.381	1.8704	-1.2236	-0.3977
16.445	0.7176	984.308	1.9272	-1.2454	-0.4151
8.671	-8.4318	973.185	1.9228	-1.1974	-0.4632
16.6244	-1.3156	983.83	1.984	-1.228	-0.402
5.5614	-8.4318	973.424	1.8878	-1.1886	-0.3889
18.3586	-4.0066	982.036	1.9053	-1.193	-0.4807
8.4916	-7.5946	971.989	1.9272	-1.1886	-0.4676
18.3586	-4.186	977.491	1.9141	-1.2192	-0.4545
10.2856	-5.382	973.125	1.9578	-1.1712	-0.4195
20.0928	-4.485	977.311	1.8966	-1.1843	-0.3977
8.073	-2.691	974.979	1.8922	-1.1886	-0.402
14.2324	-6.8172	977.85	1.9359	-1.1537	-0.4501
10.2856	-2.99	975.398	1.9141	-1.1537	-0.4501
12.9766	-6.6378	976.654	1.9097	-1.2105	-0.4938
12.259	-1.4352	979.823	1.9228	-1.1712	-0.4108
8.4916	-9.867	972.348	1.8529	-1.1755	-0.4195
12.1992	-0.5382	981.856	1.9534	-1.1668	-0.4501
8.4318	-10.4052	971.451	1.866	-1.1406	-0.4676
15.4284	0.598	981.258	1.9446	-1.1843	-0.4676
7.5946	-8.6112	968.88	1.8747	-1.1624	-0.437
18.837	-0.4784	982.215	1.949	-1.2236	-0.4414
7.3554	-7.2956	970.614	1.8441	-1.193	-0.4326
17.641	-0.8372	980.78	1.9009	-1.228	-0.4239
7.6544	-6.6378	972.587	1.8791	-1.1537	-0.437
19.6144	-1.8538	981.438	1.9403	-1.1362	-0.3802
7.1162	-5.7408	973.365	1.9228	-1.193	-0.4545
16.5646	-5.5614	981.318	1.9621	-1.1712	-0.4894
8.4916	-5.7408	974.262	1.8529	-1.1537	-0.4414
15.6078	-4.9036	979.644	1.8922	-1.1755	-0.4632
10.6444	-3.7076	976.713	1.8747	-1.1493	-0.4064
12.7374	-8.5514	973.903	1.8572	-1.1449	-0.4326
11.9002	-1.196	977.431	1.9141	-1.1668	-0.4545
11.8404	-9.8072	972.169	1.9053	-1.1318	-0.4588
14.4118	-1.8538	981.318	1.9752	-1.2017	-0.4239
8.6112	-10.5846	969.478	1.8704	-1.1799	-0.4501
16.146	-1.5548	981.796	1.9796	-1.1886	-0.4676
8.3122	-8.7308	971.571	1.9097	-1.1231	-0.4501
15.9666	1.9734	980.78	1.9228	-1.1624	-0.4064
7.5946	-7.7142	972.049	1.949	-1.1886	-0.437
18.4184	-0.3588	982.634	2.0058	-1.2061	-0.4108
5.8006	-5.382	972.228	1.8966	-1.1712	-0.4195
17.5214	-1.495	982.394	1.9228	-1.2017	-0.4239
6.6976	-5.083	971.212	1.8267	-1.2236	-0.4457
16.0862	-2.8106	982.095	1.9446	-1.193	-0.4326
7.2956	-5.7408	976.056	1.9359	-1.11	-0.4938
14.7108	-8.1926	978.866	1.9053	-1.1187	-0.4588
9.568	-4.784	976.893	1.8878	-1.1581	-0.4457
14.352	-8.1926	975.099	1.9009	-1.193	-0.472
11.1826	-2.2724	976.534	1.8616	-1.2105	-0.4414
9.7474	-8.3122	971.989	1.8747	-1.1755	-0.4151
13.5746	-1.196	977.67	1.9228	-1.2323	-0.4108
9.7474	-9.5082	971.63	1.8966	-1.2498	-0.437
15.0098	0	978.089	1.9534	-1.2061	-0.4588
9.7474	-9.269	971.63	1.9534	-1.2105	-0.4894
19.2556	0.2392	983.65	1.9796	-1.228	-0.4414
8.3122	-8.7308	973.604	1.9315	-1.1712	-0.4108
19.3154	-2.8704	985.205	1.9796	-1.1712	-0.4414
7.774	-8.4318	972.348	1.8354	-1.1581	-0.4851
19.9134	-0.9568	983.291	1.9272	-1.2236	-0.4326
6.7574	-4.6644	972.707	1.9009	-1.1449	-0.4326
15.847	-1.9734	979.584	1.9184	-1.193	-0.4676
4.4252	-3.4684	973.783	1.8878	-1.1755	-0.4326
14.8304	-4.3056	979.584	1.9272	-1.1843	-0.4457
6.7574	-2.9302	972.587	1.866	-1.1449	-0.437
11.9002	-5.681	974.501	1.8878	-1.2105	-0.4501
11.1228	-3.887	976.654	1.8835	-1.2017	-0.4457
12.857	-8.4318	975.039	1.8704	-1.2149	-0.472
11.362	-1.9734	977.61	1.8704	-1.2586	-0.4545
10.764	-11.1826	972.587	1.866	-1.2236	-0.4632
18.1194	-1.6146	980.541	1.9883	-1.2411	-0.4501
11.661	-9.9268	973.604	1.8791	-1.2017	-0.4064
18.837	-1.3754	981.856	1.9315	-1.2586	-0.3977
8.7906	-11.0032	972.886	1.8922	-1.1668	-0.4064
19.1958	-2.6312	983.172	1.9752	-1.2323	-0.4283
8.372	-7.8936	974.022	1.9971	-1.1056	-0.402
19.0164	-2.2126	980.899	1.9446	-1.1275	-0.4283
5.7408	-5.6212	971.032	1.9184	-1.1668	-0.4763
17.5214	-1.7342	980.421	1.9927	-1.1624	-0.4588
6.0996	-4.1262	973.544	1.9315	-1.1143	-0.472
13.8138	-4.3654	978.268	1.9534	-1.11	-0.4938
7.5348	-4.1262	974.74	1.9141	-1.1581	-0.4938
14.95	-4.485	977.192	1.9228	-1.2411	-0.4632
7.8338	0	975.757	1.9359	-1.2105	-0.4326
9.8072	-7.2358	974.262	1.8704	-1.1755	-0.4108
10.8836	-1.3156	980.481	1.8835	-1.2236	-0.4239
9.5082	-7.9534	974.381	1.8223	-1.2017	-0.4151
14.8304	0.4784	980.899	1.8878	-1.2411	-0.4414
8.5514	-8.4916	972.288	1.8529	-1.2411	-0.4239
17.1626	0.4784	980.242	1.9141	-1.2717	-0.4283
9.4484	-8.0132	974.68	1.8922	-1.2586	-0.3846
18.239	-1.7342	981.976	1.8529	-1.2717	-0.4326
7.176	-8.1926	970.255	1.7961	-1.2673	-0.4545
21.3486	-1.9734	981.617	1.8835	-1.2498	-0.4632
9.4484	-8.5514	971.75	1.8223	-1.1581	-0.4851
18.9566	-4.1262	980.84	1.9097	-1.1886	-0.4763
9.269	-9.9268	973.006	1.8704	-1.1712	-0.4501
19.3154	-6.2192	979.404	1.9315	-1.1799	-0.4414
8.1926	-5.8006	973.723	1.8966	-1.1843	-0.4283
16.5646	-7.475	975.458	1.8878	-1.2061	-0.4414
10.2856	-3.2292	978.149	1.9796	-1.2017	-0.4151
11.7208	-7.0564	975.458	1.9141	-1.1755	-0.4239
9.9268	-1.6744	978.926	1.984	-1.1712	-0.4414
8.7308	-8.7906	974.142	1.9621	-1.1624	-0.4326
13.3354	0.6578	979.046	1.9403	-1.1843	-0.4326
10.8836	-6.5182	975.398	1.8966	-1.2149	-0.4457
16.0862	0.8372	980.6	1.8878	-1.228	-0.4239
6.0398	-7.8936	972.647	1.8529	-1.2192	-0.4283
16.8636	0.299	981.438	1.9446	-1.193	-0.4239
7.5348	-8.7906	971.032	1.8354	-1.1668	-0.4457
18.4184	0.7176	980.84	1.9141	-1.2804	-0.4108
8.4318	-9.0896	971.69	1.8878	-1.1843	-0.4457
20.3918	-3.1694	982.514	1.8747	-1.2367	-0.437
5.7408	-7.4152	973.185	1.8485	-1.1886	-0.4195
16.8636	-5.681	978.806	1.9053	-1.1712	-0.4195
8.1328	-6.6378	974.86	1.9272	-1.1799	-0.4151
18.538	-5.5614	976.594	1.9446	-1.2498	-0.4195
9.6278	-4.784	977.909	1.9446	-1.2017	-0.3758
13.0962	-9.2092	975.637	1.9053	-1.1624	-0.4239
10.465	-2.6312	976.414	1.9446	-1.2061	-0.3977
12.1394	-8.4318	975.398	1.9446	-1.2149	-0.4239
13.2158	-0.0598	979.345	1.9403	-1.1974	-0.4151
9.4484	-7.7142	972.169	1.9403	-1.2061	-0.437
16.5646	0.299	981.617	2.0408	-1.2192	-0.4414
16.5646	-7.9534	972.408	1.8572	-1.1974	-0.4894
7.5946	-0.1196	982.155	1.9403	-1.2017	-0.4501
15.9068	-9.1494	971.391	1.9315	-1.1886	-0.4108
7.4152	-9.1494	981.557	1.984	-1.2105	-0.4239
20.2124	-2.2126	973.066	1.9009	-1.1799	-0.402
7.3554	-5.8604	980.122	1.9621	-1.228	-0.437
17.5214	-3.6478	980.122	1.9009	-1.2192	-0.4064
5.8006	-5.7408	974.501	1.9141	-1.1886	-0.4064
15.4882	-5.2624	977.909	1.9315	-1.1799	-0.4457
9.0896	-4.1262	976.295	1.8878	-1.193	-0.4283
14.4716	-7.4152	974.74	1.8791	-1.1974	-0.4064
11.1826	-1.8538	977.371	1.9184	-1.228	-0.402
13.2158	-9.269	975.218	1.9446	-1.1886	-0.4588
12.259	-1.495	978.448	1.8704	-1.1712	-0.4763
10.5846	-9.568	972.288	2.0626	-1.2323	-0.4632
15.7872	0.4186	981.438	1.9009	-1.2061	-0.4676
10.5248	-9.7474	971.81	1.9621	-1.1886	-0.4588
17.043	0.2392	981.438	1.949	-1.1799	-0.4195
7.5348	-9.4484	972.826	1.8966	-1.2411	-0.4151
18.5978	-1.8538	983.83	1.8529	-1.1712	-0.4064
6.5182	-7.2358	972.647	1.949	-1.1668	-0.3977
17.2822	-1.0166	980.301	1.8835	-1.1755	-0.4588
5.5016	-6.2192	972.408	1.9709	-1.2411	-0.4457
17.7008	-1.2558	980.899	1.9097	-1.2105	-0.4151
6.2192	-5.7408	973.544	1.9315	-1.2411	-0.4283
14.8902	-6.3986	977.431	1.9315	-1.2061	-0.4414
8.073	-4.5448	974.86	1.8878	-1.2017	-0.4501
16.2058	-6.877	976.713	1.9272	-1.2017	-0.4326
10.5846	-1.6744	977.551	1.9752	-1.2017	-0.4501
11.7806	-7.5348	973.185	1.8791	-1.1843	-0.4501
12.0198	-1.794	979.823	1.9883	-1.2017	-0.4239
12.0796	-10.0464	973.604	1.866	-1.1886	-0.4414
15.1294	-0.2392	980.541	1.9141	-1.2061	-0.437
10.5846	-9.568	972.527	1.8791	-1.1231	-0.3889
17.7606	-0.7176	982.155	1.9359	-1.2149	-0.4108
8.6112	-8.9102	973.006	1.8747	-1.1668	-0.4283
15.847	-0.897	981.796	1.949	-1.1493	-0.4064
6.5182	-8.4318	970.135	1.8747	-1.1624	-0.4545
18.4782	0	981.139	1.9534	-1.1843	-0.4195
6.3388	-6.8172	971.212	1.9184	-1.1624	-0.4414
18.0596	-3.588	981.258	1.9971	-1.2105	-0.4457
5.3222	-6.9368	972.348	1.9053	-1.1712	-0.437
17.7008	-4.9634	980.66	1.949	-1.1799	-0.3977
7.6544	-4.6644	975.159	1.9009	-1.1581	-0.437
15.0098	-6.1594	975.278	1.8966	-1.2149	-0.4588
9.9268	-1.7342	976.833	1.9534	-1.1843	-0.4239
14.352	-7.3554	975.697	1.8966	-1.193	-0.4501
10.764	-2.0332	978.926	1.9578	-1.1974	-0.4064
11.5414	-8.7308	974.142	1.8791	-1.1275	-0.4457
14.8304	-1.7342	979.703	1.9621	-1.1843	-0.4894
11.7806	-7.3554	973.424	1.8398	-1.2192	-0.402
16.2058	0.6578	980.84	1.9403	-1.2367	-0.4195
7.1162	-9.3886	971.212	1.8441	-1.1886	-0.4763
16.2058	0.7176	983.65	1.9315	-1.1843	-0.4457
7.5348	-9.0298	970.315	1.8704	-1.1056	-0.4982
18.7174	-2.0332	982.036	1.9621	-1.2017	-0.4545
6.877	-8.4916	970.494	1.8922	-1.1974	-0.4239
19.2556	-2.99	981.916	1.984	-1.2061	-0.437
5.5016	-6.3388	973.723	1.8835	-1.1624	-0.4151
17.1626	-4.4252	978.208	1.866	-1.2105	-0.4676
7.2358	-3.9468	974.561	1.9315	-1.2061	-0.4326
17.4018	-5.5016	977.551	1.9665	-1.2017	-0.4501
8.9102	-3.0498	975.458	1.984	-1.193	-0.4501
13.2756	-7.7142	976.654	1.9621	-1.1974	-0.4632
11.5414	-2.5714	977.551	1.9272	-1.1974	-0.4588
12.9168	-7.2358	976.355	1.9184	-1.1275	-0.4414
13.0364	-0.1196	978.268	1.9009	-1.2017	-0.4195
10.3454	-8.6112	972.647	1.8835	-1.2105	-0.4195
15.548	1.5548	981.258	1.9446	-1.2192	-0.4414
8.9102	-9.9268	972.647	1.9141	-1.1362	-0.4807
15.7872	-0.7774	981.916	1.9315	-1.1537	-0.4326
7.475	-10.166	970.375	1.8878	-1.1799	-0.4151
19.1958	-1.3754	982.155	1.9578	-1.2105	-0.437
7.774	-8.0132	973.125	1.9053	-1.2323	-0.4457
16.5646	-1.8538	980.182	1.9228	-1.2542	-0.4457
5.083	-7.4152	972.527	1.9097	-1.1187	-0.4239
18.239	-4.3654	980.959	1.9621	-1.1712	-0.4588
6.6378	-5.6212	972.527	1.866	-1.1974	-0.4763
17.1028	-4.9036	978.567	1.9053	-1.1886	-0.4894
8.7906	-4.6644	974.979	1.9403	-1.1886	-0.4938
16.146	-6.0398	978.268	1.8922	-1.2149	-0.4283
9.269	-2.392	976.773	1.9097	-1.1668	-0.4326
12.7972	-7.774	975.577	1.8529	-1.193	-0.4414
12.4982	-0.897	977.85	1.984	-1.2061	-0.4326
12.3786	-7.8338	973.424	1.9009	-1.1843	-0.4326
14.1128	-0.1196	980.6	1.9446	-1.2454	-0.4588
9.9268	-9.9866	972.527	1.8747	-1.1755	-0.437
16.6842	-1.196	981.677	1.9534	-1.1668	-0.4283
9.568	-9.6278	974.8	1.8835	-1.1799	-0.4457
16.9234	-0.6578	979.285	1.9141	-1.1755	-0.3933
6.1594	-8.1328	970.494	1.8966	-1.1886	-0.4851
18.239	-1.6744	981.438	1.984	-1.2192	-0.4195
5.8006	-6.7574	972.169	1.8485	-1.1318	-0.4064
16.9832	-4.0664	980.062	1.9665	-1.1537	-0.4064
7.3554	-6.8172	973.125	1.9359	-1.1886	-0.4414
18.3586	-4.6644	978.926	1.9097	-1.2542	-0.4938
9.0896	-4.0066	974.979	1.9315	-1.1581	-0.437
14.8304	-6.2192	976.713	1.8791	-1.1886	-0.4545
9.1494	-3.0498	976.056	1.9359	-1.1843	-0.4108
14.1128	-7.475	975.577	1.9272	-1.1843	-0.4457
12.4384	-1.5548	979.046	1.9883	-1.2017	-0.437
12.3786	-8.0132	973.843	1.8616	-1.1712	-0.4239
15.4284	-0.9568	978.806	1.9403	-1.2323	-0.437
10.465	-9.3288	974.919	1.9097	-1.2236	-0.4283
13.6942	1.0166	980.899	1.9578	-1.2411	-0.4501
7.1162	-9.0896	971.81	1.9315	-1.1712	-0.4545
17.7606	-0.1196	980.541	1.9272	-1.1974	-0.3977
6.8172	-7.2956	972.527	1.8616	-1.2149	-0.3933
17.1028	-1.2558	981.438	1.9665	-1.2498	-0.4457
5.8006	-9.0298	971.212	1.9009	-1.2105	-0.4676
18.1792	-2.7508	981.258	1.9446	-1.2542	-0.4239
6.1594	-6.5182	972.886	1.866	-1.2105	-0.4108
17.1626	-4.3056	977.73	1.8747	-1.2367	-0.4108
6.877	-4.4252	973.484	1.8485	-1.2017	-0.4414
16.9832	-4.4252	979.046	1.9141	-1.1799	-0.4414
8.1926	-4.6046	976.175	1.866	-1.1799	-0.4676
13.9932	-7.9534	975.577	1.9097	-1.1362	-0.4676
11.3022	-2.5714	977.551	1.9009	-1.1581	-0.4239
15.3686	-8.1926	976.833	1.8966	-1.2061	-0.4545
13.3952	-0.598	978.208	1.9097	-1.2105	-0.437
9.3288	-8.1926	973.544	1.9141	-1.1581	-0.4283
14.651	-1.5548	981.976	1.9534	-1.193	-0.4239
8.372	-9.8072	970.494	1.8441	-1.2236	-0.472
16.8636	-0.6578	980.72	1.9665	-1.193	-0.4545
7.774	-9.3288	972.408	1.8922	-1.1493	-0.4632
17.8802	-1.4352	979.703	1.9359	-1.2323	-0.4501
6.5182	-7.8936	974.501	1.9097	-1.1493	-0.4588
17.1028	-3.1096	979.225	1.949	-1.1799	-0.4326
6.0996	-7.0564	973.604	1.8835	-1.1799	-0.4457
19.136	-2.99	979.285	1.9228	-1.2061	-0.4326
7.176	-5.8006	973.484	1.8791	-1.1668	-0.402
17.043	-4.9036	978.926	1.9228	-1.1581	-0.4457
8.0132	-5.2026	976.115	1.9446	-1.1581	-0.4108
16.2656	-7.176	978.208	1.9097	-1.1668	-0.4239
9.867	-2.9302	976.713	1.9053	-1.1843	-0.4545
12.857	-7.5946	974.142	1.8572	-1.193	-0.4632
13.3952	-0.299	978.747	1.949	-1.2367	-0.4501
11.0032	-8.671	973.125	1.8922	-1.1712	-0.4588
13.3952	-0.9568	980.78	1.949	-1.1712	-0.4326
8.97	-10.5248	973.245	1.8704	-1.1493	-0.4545
17.4616	-1.196	979.165	1.9184	-1.2192	-0.4151
8.6112	-7.8936	974.082	1.9315	-1.2017	-0.4676
16.6842	-0.9568	980.84	1.9359	-1.1886	-0.4588
5.9202	-8.671	971.75	1.9184	-1.1712	-0.4239
17.2224	-1.4352	980.66	1.9971	-1.2149	-0.4676
6.7574	-7.9534	974.381	1.9141	-1.1231	-0.4457
18.6576	-3.1096	979.285	1.949	-1.1712	-0.4545
7.2358	-5.7408	972.647	1.9665	-1.1799	-0.4457
18.4184	-5.083	979.763	1.9403	-1.2017	-0.4195
6.7574	-3.5282	975.517	1.8616	-1.1886	-0.4457
13.8736	-6.3388	975.159	1.8966	-1.1886	-0.437
9.8072	-2.1528	977.85	1.9315	-1.2236	-0.437
14.651	-6.2192	974.142	1.9053	-1.1755	-0.4501
12.1992	-0.7774	980.002	2.0102	-1.1581	-0.4632
11.661	-9.9866	973.424	1.9053	-1.1668	-0.4807
13.0962	-0.5382	978.866	1.949	-1.2411	-0.4894
10.7042	-9.1494	974.919	1.949	-1.2017	-0.472
15.0696	0.0598	978.747	1.9228	-1.1581	-0.4414
7.7142	-8.8504	971.511	1.8048	-1.1755	-0.4326
17.2822	0.299	981.378	1.9359	-1.2454	-0.4108
7.8338	-8.8504	972.767	1.8616	-1.1406	-0.4239
17.043	-2.7508	981.557	1.9534	-1.1755	-0.4108
5.8006	-8.97	971.152	1.8966	-1.1843	-0.4588
20.2722	-3.2292	981.497	1.8966	-1.2542	-0.4326
6.6976	-4.6046	973.185	1.9141	-1.2061	-0.4108
16.6244	-4.186	978.208	1.949	-1.1712	-0.402
5.6212	-4.784	975.577	1.9315	-1.1712	-0.4414
15.4284	-5.5614	977.551	1.8835	-1.1581	-0.4239
8.8504	-3.3488	976.355	1.8966	-1.1537	-0.4283
14.95	-7.5946	975.039	1.8747	-1.1755	-0.4807
12.1394	-2.1528	978.507	1.949	-1.1843	-0.4501
12.7374	-7.2358	975.577	1.9446	-1.1886	-0.4195
12.6776	-0.598	980.361	1.9796	-1.2149	-0.4151
9.1494	-9.6876	971.63	1.8485	-1.1799	-0.4283
14.7108	1.0166	981.079	1.9446	-1.2149	-0.4457
8.9102	-10.0464	971.69	1.9184	-1.1886	-0.4807
16.2656	-0.4784	980.78	1.9578	-1.2367	-0.4545
6.9368	-9.7474	972.468	1.8878	-1.1886	-0.4064
18.4184	-2.7508	982.394	1.9621	-1.2411	-0.4326
6.7574	-8.4916	972.049	1.8835	-1.1843	-0.4283
18.4184	-1.9136	980.122	1.9228	-1.1755	-0.4457
7.0564	-6.877	972.468	1.9053	-1.1799	-0.4326
18.7772	-3.0498	980.899	1.9228	-1.2105	-0.4283
6.0398	-5.0232	974.74	1.9053	-1.1886	-0.4195
16.3852	-6.5182	978.208	1.9272	-1.1581	-0.4283
9.0298	-4.186	974.979	1.9097	-1.1624	-0.4457
17.043	-5.9202	976.893	1.9272	-1.2149	-0.4414
10.9434	-1.8538	977.67	1.9796	-1.2323	-0.4676
10.5248	-7.6544	973.843	1.8398	-1.2149	-0.4151
11.4816	0.0598	980.122	1.9272	-1.1843	-0.4195
10.8238	-8.671	973.365	1.9141	-1.1712	-0.437
14.8902	-0.4784	980.002	1.9403	-1.2017	-0.4894
9.3288	-9.269	972.049	1.9097	-1.1974	-0.4676
17.7008	-1.5548	981.737	1.9359	-1.193	-0.4457
7.9534	-9.6278	973.245	1.866	-1.1799	-0.4108
16.5048	-1.196	981.198	1.9053	-1.1974	-0.3977
5.6212	-9.0298	972.587	1.9359	-1.1581	-0.4457
18.1194	-2.392	980.182	1.9621	-1.2149	-0.3977
5.98	-7.0564	973.365	1.8704	-1.1712	-0.4195
15.6676	-5.1428	980.002	1.9883	-1.1668	-0.4501
5.382	-5.7408	972.946	1.9359	-1.1668	-0.437
16.0264	-5.98	977.491	1.8878	-1.1843	-0.4501
7.7142	-3.3488	978.268	1.9665	-1.2149	-0.4632
14.95	-7.774	971.272	1.8441	-1.2017	-0.4283
12.0796	0.0598	978.089	1.9883	-1.2017	-0.4414
13.8138	-6.9966	974.561	1.8004	-1.1624	-0.4064
14.2324	0.299	978.627	1.9883	-1.2848	-0.4283
9.8072	-8.671	975.517	1.8616	-1.2105	-0.4108
17.5812	0.1794	979.285	1.9621	-1.1886	-0.4588
11.6012	-7.2956	977.73	1.8966	-1.2017	-0.4763
18.2988	1.0166	977.85	1.9272	-1.2498	-0.4501
7.7142	-7.5946	976.953	1.9053	-1.2105	-0.4894
17.1626	-1.9734	978.328	1.9228	-1.2673	-0.4763
7.176	-7.1162	975.517	1.9446	-1.1755	-0.4457
18.239	-2.0332	977.371	1.9097	-1.1799	-0.4457
7.5348	-6.877	972.946	1.9053	-1.1143	-0.4501
18.1194	-3.3488	979.464	1.8966	-1.1974	-0.402
5.5016	-7.3554	974.022	1.9009	-1.1624	-0.4501
14.4118	-6.7574	978.388	1.8179	-1.1843	-0.4807
6.578	-6.0398	972.169	1.8922	-1.1449	-0.4326
17.342	-5.382	979.105	1.866	-1.1406	-0.402
9.568	-3.7076	975.577	1.9315	-1.1799	-0.437
12.6178	-7.4152	976.295	1.9184	-1.1712	-0.4982
12.259	-2.9302	978.268	1.9534	-1.1799	-0.4545
12.6178	-8.372	977.132	1.9272	-1.2454	-0.4457
13.9932	1.3156	976.534	1.9359	-1.2105	-0.4632
10.6444	-8.7906	973.723	1.9272	-1.1886	-0.4632
16.6842	1.196	978.926	1.9796	-1.1843	-0.472
8.1926	-7.1162	974.68	1.9315	-1.1712	-0.4414
17.8204	-1.2558	980.481	1.8922	-1.193	-0.4195
7.774	-7.6544	971.63	1.8791	-1.1406	-0.4501
19.0762	-1.0166	980.899	1.9359	-1.1886	-0.437
8.9102	-7.0564	974.86	1.9272	-1.1712	-0.4457
16.8038	-2.5116	979.404	1.8441	-1.1974	-0.4064
5.2624	-5.5614	971.929	1.8441	-1.193	-0.4894
20.7506	-3.588	980.84	1.9709	-1.2105	-0.4676
6.6976	-4.9036	971.63	1.9315	-1.2192	-0.3977
20.6908	-1.495	972.348	1.9097	-1.2454	-0.4588
9.7474	-6.2192	976.534	1.9272	-1.1974	-0.4151
20.93	-3.0498	976.295	1.9446	-1.2411	-0.4108
12.3786	-1.3754	980.242	1.9053	-1.1318	-0.4326
25.5944	1.3754	961.524	1.8572	-1.1843	-0.4501
27.0296	13.0962	964.335	1.9752	-1.2542	-0.4545
23.7406	2.8106	961.704	2.067	-1.394	-0.4851
29.302	14.1726	979.345	2.2068	-1.4203	-0.4982
32.89	6.9368	967.684	2.0757	-1.3023	-0.4588
35.3418	13.8736	980.84	2.1937	-1.3897	-0.3758
29.8402	10.2258	970.255	2.0801	-1.3765	-0.354
45.2686	21.3486	969.238	2.1195	-1.4071	-0.4588
45.5676	29.8402	973.006	2.185	-1.5033	-0.4763
41.0826	17.2224	972.049	2.185	-1.5208	-0.4326
-44.85	3.4684	971.152	1.9927	-1.2498	-0.4894
-33.4282	16.744	968.76	2.067	-1.3154	-0.4982
-30.9764	14.1128	968.999	2.1413	-1.3416	-0.5681
-10.8836	17.641	974.8	2.2068	-1.4421	-0.6249
-5.083	18.8968	963.916	2.1238	-1.4945	-0.6599
8.9102	21.5878	968.521	2.15	-1.6256	-0.5856
7.1162	23.6808	967.086	2.22	-1.783	-0.5375
13.5148	24.9964	970.973	2.1631	-1.8747	-0.5113
11.4816	33.5478	973.723	2.3161	-1.8704	-0.4283
12.857	31.4548	970.853	2.2724	-1.8092	-0.3671
14.7706	40.4248	982.634	2.4647	-1.8791	-0.3146
4.9634	33.787	979.105	2.3729	-1.7655	-0.2709
2.2724	36.777	991.783	2.4122	-1.7087	-0.2622
-11.3022	28.4648	988.434	2.2986	-1.5776	-0.3146
-9.2092	24.7572	994.833	2.1894	-1.429	-0.3627
-20.033	18.7174	987.657	2.1063	-1.3066	-0.3715
-21.6476	10.8238	988.195	1.9796	-1.2454	-0.4195
-25.2356	11.0032	985.265	1.8922	-1.1886	-0.4676
-29.7804	3.1096	977.969	1.6825	-1.0969	-0.4676
-24.2788	9.269	975.099	1.6256	-1.0706	-0.5288
-26.611	4.485	963.976	1.6562	-1.0488	-0.5244
-13.8736	10.764	968.939	1.7174	-1.1012	-0.5157
-19.8536	10.2258	960.627	1.713	-1.0838	-0.4894
-8.97	13.8138	970.733	1.8179	-1.1187	-0.4501
-12.0796	17.7606	968.042	1.8835	-1.1668	-0.4064
-7.176	19.136	976.175	1.9709	-1.2498	-0.4414
-8.0132	23.8004	979.225	2.0583	-1.2804	-0.3889
-11.9002	18.538	979.644	2.0277	-1.2498	-0.3758
-6.9966	24.9964	988.374	2.0539	-1.2236	-0.3846
-17.1626	17.7606	981.198	1.949	-1.1974	-0.3321
-11.5414	21.0496	985.325	1.9184	-1.2017	-0.3452
-22.6044	16.6244	976.713	1.9315	-1.1886	-0.4151
-14.4716	15.9068	980.182	1.8398	-1.1799	-0.4326
-21.7672	15.6676	971.092	1.866	-1.2061	-0.4676
-15.7274	13.3354	971.511	1.7436	-1.1493	-0.5288
-16.146	13.9932	969.298	1.8485	-1.1843	-0.5069
-15.548	10.7042	970.016	1.8616	-1.1843	-0.5375
-10.9434	14.7108	970.913	1.8398	-1.2411	-0.4763
-13.6942	11.5414	968.82	1.9665	-1.1886	-0.5069
-7.5946	19.6742	978.029	1.9053	-1.276	-0.4414
-15.4882	14.5912	974.62	1.9578	-1.2673	-0.4239
-10.465	21.1692	983.949	1.949	-1.2717	-0.4588
-19.136	15.6078	975.218	1.9403	-1.1974	-0.3846
-11.1826	20.3918	985.923	1.9752	-1.2192	-0.3977
-17.4616	17.94	975.876	1.9709	-1.1712	-0.437
-13.6942	17.8802	980.301	1.9883	-1.1493	-0.4501
-18.538	16.5048	975.398	1.9009	-1.1449	-0.4283
-14.8304	14.4118	974.8	1.8441	-1.1712	-0.4414
-16.5048	18.7174	973.006	1.8485	-1.2192	-0.4239
-16.3852	14.2324	969.238	1.8878	-1.1799	-0.5025
-12.558	20.332	975.517	1.8747	-1.2454	-0.4851
-15.847	12.558	971.152	1.8704	-1.1712	-0.4457
-13.3354	19.2556	975.637	1.8616	-1.2149	-0.402
-15.7872	11.2424	974.082	1.9184	-1.2411	-0.4763
-8.8504	20.1526	980.182	1.9228	-1.2411	-0.4414
-16.6244	13.5746	975.338	1.9053	-1.2236	-0.3802
-10.3454	18.5978	984.368	1.9621	-1.1974	-0.4326
-19.734	14.352	972.288	1.8747	-1.1493	-0.4588
-9.6278	18.4782	984.727	1.9184	-1.1624	-0.4283
-19.5546	15.847	969.478	1.8223	-1.1581	-0.3671
-11.4218	17.043	979.046	1.9446	-1.1712	-0.4064
-18.7174	16.8038	971.81	1.9184	-1.193	-0.4501
-12.0796	15.0098	977.79	1.9184	-1.1624	-0.4588
-17.8802	18.0596	973.365	1.8485	-1.1843	-0.4151
-16.6842	14.2324	972.527	1.9184	-1.1624	-0.4195
-14.1128	19.6742	976.773	1.9053	-1.2061	-0.4283
-14.4716	13.9334	973.664	1.9009	-1.2105	-0.472
-13.6942	20.3918	976.713	1.9272	-1.2367	-0.472
-16.0862	11.1826	974.321	1.8966	-1.1668	-0.4676
-11.4816	20.631	980.481	1.9359	-1.2061	-0.4195
-15.6078	11.96	973.723	1.8878	-1.1843	-0.4283
-10.7042	20.8702	981.318	1.9228	-1.1974	-0.4283
-19.0762	12.6776	968.7	1.8135	-1.1449	-0.4807
-10.4052	21.3486	982.992	1.9359	-1.1624	-0.4457
-19.5546	13.5148	969.836	1.831	-1.1187	-0.4414
-11.0032	19.2556	980.361	1.9796	-1.1886	-0.4545
-20.2124	13.6344	969.956	1.9097	-1.1318	-0.437
-8.073	18.0596	981.258	1.9228	-1.2149	-0.472
-18.7174	16.0264	972.647	1.8354	-1.2105	-0.4414
-11.5414	16.8636	977.67	1.949	-1.1668	-0.4457
-18.1792	16.2058	974.022	1.9097	-1.1974	-0.4457
-12.1394	15.3686	979.165	1.984	-1.1755	-0.4545
-17.641	18.2988	972.707	1.8485	-1.2105	-0.437
-12.4384	13.156	976.594	1.9009	-1.1974	-0.437
-13.156	19.7938	976.893	1.8791	-1.2192	-0.4326
-13.6942	12.6178	976.953	1.8922	-1.1712	-0.3933
-14.2922	19.7938	979.404	1.8966	-1.1843	-0.4108
-17.1626	12.4384	971.331	1.831	-1.2236	-0.402
-11.3022	21.528	980.182	1.9141	-1.228	-0.4632
-18.239	13.3952	969.597	1.8267	-1.1886	-0.4326
-11.661	21.3486	980.242	1.8966	-1.2061	-0.4108
-19.1958	12.1394	969.298	1.8747	-1.1668	-0.4851
-9.9268	19.136	981.856	1.9534	-1.2061	-0.4588
-19.2556	12.7374	970.076	1.8267	-1.193	-0.4283
-9.2092	19.435	982.514	1.949	-1.193	-0.4501
-19.3154	14.4716	970.195	1.8179	-1.228	-0.4545
-8.8504	18.1792	982.693	1.9446	-1.2149	-0.4326
-19.6742	16.5048	971.032	1.8048	-1.2105	-0.4501
-11.5414	14.7706	979.165	1.8922	-1.2192	-0.5113
-17.7606	17.4018	972.767	1.866	-1.2105	-0.4632
-10.8836	13.8138	977.79	1.9359	-1.2411	-0.4763
-15.6078	18.538	975.757	1.9184	-1.1843	-0.4326
-15.249	14.4716	974.262	1.9228	-1.1581	-0.4283
-15.0696	20.332	978.986	1.9097	-1.1843	-0.4326
-16.5048	12.4384	972.587	1.8572	-1.1449	-0.4283
-13.3952	20.6908	976.893	1.8791	-1.2192	-0.402
-17.342	12.7374	971.69	1.9141	-1.1624	-0.4457
-10.465	21.3486	982.036	1.9621	-1.2411	-0.4326
-18.3586	11.3022	970.793	1.8791	-1.2192	-0.437
-12.0796	20.9898	982.095	1.9359	-1.2411	-0.4326
-19.9732	12.1394	969.777	1.7917	-1.1712	-0.4326
-7.8936	20.5114	982.933	1.9315	-1.2236	-0.4501
-19.4948	15.3088	968.102	1.8441	-1.2105	-0.4326
-10.1062	17.1028	981.079	1.9534	-1.2323	-0.4632
-18.8968	15.1294	971.75	1.8572	-1.1668	-0.4414
-10.6444	16.3254	978.866	1.9796	-1.2061	-0.4239
-17.342	16.8636	975.458	1.8572	-1.1843	-0.437
-13.455	15.0098	974.8	1.8747	-1.1886	-0.4239
-15.9068	18.8968	976.115	1.9009	-1.228	-0.4283
-14.053	14.1128	975.338	1.9053	-1.1668	-0.4545
-15.4284	19.7938	977.371	1.8922	-1.1624	-0.3977
-16.0264	12.7374	972.707	1.8922	-1.0969	-0.4108
-11.4218	20.2722	979.823	1.9446	-1.193	-0.4676
-15.9068	11.8404	970.315	1.8966	-1.1668	-0.4763
-11.362	22.0064	982.454	1.9359	-1.2105	-0.4283
-19.0164	11.5414	968.999	1.8878	-1.1668	-0.437
-10.166	20.5114	984.308	1.9272	-1.2061	-0.4326
-19.9732	13.156	968.581	1.8179	-1.1362	-0.4457
-9.1494	19.136	981.318	1.984	-1.1843	-0.4457
-18.7772	14.5314	969.836	1.8791	-1.1755	-0.4414
-8.7906	18.2988	981.378	1.9752	-1.1755	-0.4632
-20.1526	15.0696	973.604	1.8529	-1.1318	-0.4239
-13.156	16.3254	978.208	1.8616	-1.1886	-0.4239
-18.3586	17.8204	973.245	1.8747	-1.2586	-0.4763
-10.7042	16.5048	977.491	1.949	-1.2061	-0.5025
-16.744	17.9998	974.441	1.9097	-1.2367	-0.4545
-14.1128	14.053	974.62	1.9578	-1.1974	-0.4545
-14.352	19.3154	977.67	1.9184	-1.193	-0.4501
-14.053	12.9168	973.783	1.9097	-1.2061	-0.4588
-12.9766	21.1692	979.883	1.9228	-1.2105	-0.4501
-16.3852	11.4218	969.657	1.8878	-1.1755	-0.4632
-11.5414	22.6044	981.737	1.9709	-1.1843	-0.4545
-18.8968	12.0796	969.896	1.8267	-1.1406	-0.4545
-11.1826	20.5114	982.215	1.9621	-1.1581	-0.4414
-18.8968	11.4218	969.657	1.866	-1.1231	-0.4239
-8.6112	19.734	981.497	1.9446	-1.2149	-0.4283
-18.1792	14.2922	971.63	1.9141	-1.2149	-0.472
-9.568	19.3752	979.763	1.9272	-1.1886	-0.4414
-21.229	15.0696	970.793	1.8835	-1.1843	-0.4283
-9.6876	16.9234	980.78	1.9665	-1.1581	-0.4151
-18.8968	16.0264	969.836	1.8398	-1.2061	-0.4632
-11.7208	16.5048	978.149	1.9796	-1.1974	-0.3889
-16.0862	17.1028	974.86	1.9009	-1.228	-0.402
-11.8404	14.8902	978.208	1.9184	-1.2017	-0.4195
-16.3254	19.0762	976.893	1.8922	-1.2367	-0.4676
-15.9666	12.259	972.587	1.8966	-1.1712	-0.3977
-13.455	21.6476	980.481	1.9446	-1.2149	-0.437
-15.7274	13.2756	970.973	1.9009	-1.1537	-0.4414
-12.4982	21.0496	978.926	1.9446	-1.1843	-0.4545
-17.5812	11.063	971.69	1.8747	-1.1362	-0.4501
-11.4218	20.8702	981.198	1.9315	-1.2017	-0.4195
-17.342	11.7208	971.451	1.8704	-1.1886	-0.4239
-10.8238	20.5712	980.182	1.9359	-1.2236	-0.437
-20.2124	13.9932	970.674	1.8441	-1.2236	-0.4239
-8.671	18.837	982.933	1.9665	-1.2192	-0.3889
-20.033	13.9932	970.315	1.8092	-1.1493	-0.3977
-11.0032	17.043	980.72	1.9446	-1.1318	-0.4588
-17.4616	13.6942	970.913	1.9097	-1.1712	-0.4501
-9.3886	15.3088	979.225	1.9665	-1.2105	-0.4326
-16.3852	17.2822	973.365	1.8835	-1.1974	-0.4151
-14.2922	14.95	975.159	1.9315	-1.1449	-0.4588
-15.847	19.3154	976.833	1.9009	-1.2236	-0.4457
-14.95	15.7872	972.886	1.9097	-1.1493	-0.4326
-14.8902	21.2888	977.909	1.9446	-1.2454	-0.4763
-15.4882	13.0364	974.082	1.949	-1.1624	-0.5069
-12.0796	22.3652	980.66	1.9883	-1.2367	-0.4545
-16.744	11.7208	974.142	1.8878	-1.1624	-0.437
-12.9766	20.332	981.019	1.9009	-1.1974	-0.437
-18.7772	11.4218	968.76	1.8092	-1.193	-0.402
-8.7906	20.2124	982.095	1.9665	-1.2149	-0.4588
-19.7938	12.4384	969.059	1.866	-1.228	-0.4545
-11.1826	18.1792	980.301	1.9971	-1.228	-0.4501
-19.9134	12.0796	970.494	1.8922	-1.1406	-0.4457
-7.8936	17.4616	981.258	1.9315	-1.193	-0.4195
-18.7174	15.9666	971.212	1.8878	-1.1799	-0.3802
-11.661	17.043	980.122	1.9446	-1.1974	-0.437
-17.7008	17.94	973.066	1.8572	-1.1974	-0.4414
-11.1826	19.1958	978.747	1.9752	-1.1624	-0.4632
-16.146	19.6742	976.295	1.9009	-1.1799	-0.4807
-14.7108	12.9168	977.072	1.9009	-1.1581	-0.4763
-14.651	18.8968	977.311	1.8966	-1.2192	-0.4938
-13.3354	11.063	973.664	1.8922	-1.1843	-0.4457
-12.558	19.435	979.345	1.8747	-1.2411	-0.4588
-17.5812	10.3454	967.983	1.8354	-1.2061	-0.4283
-13.8138	20.5712	979.105	1.9709	-1.1843	-0.4283
-19.7938	11.4816	967.325	1.8441	-1.1275	-0.4457
-11.8404	21.9466	978.866	1.9534	-1.2192	-0.4326
-18.5978	14.7706	970.733	1.9446	-1.2017	-0.437
-8.2524	20.8104	982.813	2.0583	-1.2498	-0.437
-19.7938	15.7274	974.501	1.8922	-1.2149	-0.4239
-10.764	19.0762	983.471	1.9272	-1.2061	-0.4676
-19.1958	15.1294	972.587	1.8267	-1.1712	-0.4457
-8.97	18.6576	981.856	1.9315	-1.1974	-0.472
-17.2224	16.0862	970.195	1.8398	-1.1843	-0.4807
-11.5414	14.8304	976.953	1.8966	-1.1712	-0.4151
-16.146	15.4882	972.946	1.866	-1.1843	-0.3889
-11.9002	11.9002	975.577	1.9446	-1.1537	-0.402
-15.0696	19.0762	975.697	1.9272	-1.2149	-0.437
-15.548	12.1992	970.554	1.8878	-1.1449	-0.4151
-13.754	20.8702	979.046	1.9709	-1.2411	-0.4151
-16.8038	11.9002	972.109	1.8922	-1.2017	-0.4151
-14.1128	21.8868	980.361	1.9272	-1.2061	-0.4151
-18.5978	11.4816	972.707	1.8747	-1.2017	-0.4151
-10.5248	21.2888	980.481	1.984	-1.2323	-0.4151
-17.7606	14.352	971.63	1.8835	-1.1886	-0.437
-9.867	20.5712	982.155	1.9359	-1.2411	-0.4588
-19.435	12.9766	969.956	1.831	-1.1799	-0.402
-9.8072	19.136	982.693	1.9709	-1.2411	-0.4064
-19.6144	14.4716	968.102	1.8441	-1.1668	-0.4108
-8.7906	17.5812	981.079	1.9665	-1.1668	-0.3889
-17.1028	16.6842	971.212	1.8441	-1.1799	-0.3234
-9.9866	15.249	979.404	1.9883	-1.1668	-0.3802
-18.1792	16.5048	975.338	1.8878	-1.1799	-0.4239
-14.651	13.5746	973.544	1.8835	-1.1755	-0.437
-15.3088	19.7938	979.046	1.9446	-1.2061	-0.4195
-14.053	13.6344	973.604	1.9009	-1.1843	-0.4151
-14.4716	21.0496	977.969	1.9053	-1.228	-0.3933
-17.2224	11.2424	972.587	1.8878	-1.1275	-0.3933
-12.9168	20.2722	979.703	1.9403	-1.1537	-0.4588
-16.6244	12.0198	973.544	1.8704	-1.2017	-0.4239
-11.1228	20.8702	980.421	1.9709	-1.2236	-0.4588
-18.837	12.1992	970.076	1.866	-1.2017	-0.437
-18.837	20.9898	982.753	1.9578	-1.2192	-0.4457
-9.0298	12.6178	969.358	1.8267	-1.1755	-0.4545
-18.9566	12.6178	982.634	1.9752	-1.1799	-0.4676
-9.7474	19.3154	967.684	1.8791	-1.1886	-0.4326
-19.9732	14.651	967.684	2.0189	-1.1974	-0.437
-7.5348	17.94	982.574	1.9053	-1.1843	-0.4851
-17.8802	16.2656	972.527	1.949	-1.1668	-0.4326
-11.661	16.9832	977.132	1.8922	-1.1799	-0.4326
-19.2556	17.7606	975.278	1.9709	-1.1668	-0.4545
-12.7374	14.7706	976.953	1.8878	-1.1799	-0.4851
-16.146	19.1958	975.159	1.9097	-1.1493	-0.4457
-13.6344	13.3354	974.8	1.8966	-1.1755	-0.4588
-14.352	19.8536	976.534	1.8922	-1.2017	-0.4763
-14.4716	12.259	975.159	1.9141	-1.193	-0.4501
-14.1128	19.9134	978.567	1.866	-1.1799	-0.4894
-17.1028	10.9434	971.391	2.0015	-1.2192	-0.4239
-11.2424	21.7672	980.421	1.8966	-1.1843	-0.402
-16.9832	11.661	969.717	1.984	-1.2323	-0.4151
-10.465	20.2124	981.617	1.8704	-1.0925	-0.4283
-20.033	12.6178	968.7	2.0146	-1.1668	-0.4588
-8.7906	19.0762	983.65	2.0146	-1.1712	-0.5025
-19.2556	13.6344	970.434	1.8747	-1.2061	-0.4938
-10.5846	19.7938	980.78	1.9228	-1.1843	-0.4894
-20.6908	16.146	971.032	1.8441	-1.1843	-0.437
-9.6876	17.641	981.019	1.9796	-1.1406	-0.4457
-20.332	16.9832	971.929	1.8747	-1.1275	-0.4326
-12.558	14.8902	978.089	1.9534	-1.1581	-0.4676
-16.5048	16.9234	974.142	1.8354	-1.1755	-0.4676
-12.0796	14.2922	976.175	1.9141	-1.1886	-0.4326
-14.7706	19.4948	976.355	1.9272	-1.2236	-0.437
-14.95	12.0796	972.348	1.8441	-1.2017	-0.4588
-14.4118	21.1692	978.747	1.8922	-1.2323	-0.4414
-16.146	10.8238	971.571	1.8747	-1.193	-0.4283
-12.1394	20.4516	980.002	1.9272	-1.2542	-0.4457
-16.0862	11.5414	970.733	1.8922	-1.1974	-0.437
-9.7474	20.033	982.454	1.9927	-1.1886	-0.3889
-18.837	11.7806	971.331	1.8878	-1.193	-0.3977
-11.1826	21.6476	981.497	1.9578	-1.1755	-0.4414
-19.7938	13.8736	969.537	1.8616	-1.1537	-0.4588
-8.97	20.8104	983.232	1.9752	-1.1712	-0.4414
-20.93	15.6078	969.059	1.8485	-1.1449	-0.4151
-10.5248	17.7606	981.497	1.9709	-1.1668	-0.4195
-19.435	16.0862	970.973	1.8922	-1.2105	-0.4195
-11.3022	16.3254	980.122	1.9403	-1.1712	-0.4763
-17.7606	17.7008	973.245	1.8704	-1.1886	-0.4632
-14.2324	14.053	974.022	1.8616	-1.2149	-0.4326
-15.9068	20.3918	976.355	1.866	-1.3066	-0.437
-13.754	13.5746	974.441	1.8835	-1.2105	-0.4457
-14.5912	19.7938	979.464	1.8791	-1.2105	-0.4283
-15.9068	11.8404	971.87	1.8791	-1.1974	-0.4195
-11.4218	20.033	979.763	1.9534	-1.2542	-0.4501
-14.7706	11.4218	973.245	1.8529	-1.2454	-0.4588
-10.2856	21.3486	979.345	1.9315	-1.2323	-0.4588
-18.239	11.4816	970.255	1.8704	-1.1974	-0.4545
-9.8072	19.7938	983.889	1.9883	-1.2105	-0.437
-19.136	12.0796	966.488	1.7698	-1.1799	-0.437
-8.7308	19.6742	982.095	1.9665	-1.1581	-0.4239
-18.4782	13.2158	968.999	1.8835	-1.1493	-0.4151
-8.7308	18.2988	982.394	2.0539	-1.1581	-0.4414
-20.033	15.249	972.527	1.8922	-1.1799	-0.4807
-12.0198	15.9666	977.969	1.9228	-1.1624	-0.4894
-19.0164	18.6576	974.142	1.9097	-1.1886	-0.4632
-11.1826	16.5646	976.833	1.9709	-1.1624	-0.437
-17.2224	19.435	976.056	1.8922	-1.193	-0.4064
-15.6078	14.2922	975.577	1.8878	-1.193	-0.4239
-15.3088	19.435	977.67	1.9009	-1.2192	-0.4545
-14.4716	12.9168	975.099	1.8572	-1.2192	-0.437
-13.3952	21.3486	978.208	1.8791	-1.2629	-0.4195
-16.9832	12.1394	969.717	1.8398	-1.2236	-0.4457
-10.9434	22.0064	981.796	1.9097	-1.1799	-0.4501
-17.2224	11.7806	968.82	1.8267	-1.1712	-0.4239
-10.1062	20.93	982.335	1.9752	-1.193	-0.437
-18.4184	10.6444	968.939	1.8004	-1.1886	-0.4588
-7.5946	19.435	982.454	1.9752	-1.2586	-0.472
-17.4018	13.2158	971.87	1.8092	-1.2236	-0.4676
-8.4916	17.7008	978.149	1.8922	-1.1668	-0.4457
-20.0928	15.1294	972.527	1.8092	-1.1886	-0.4588
-10.7042	17.1626	978.448	1.9184	-1.1755	-0.4195
-17.5214	16.146	974.441	1.8747	-1.1974	-0.4239
-11.2424	16.0862	976.295	1.9446	-1.1493	-0.437
-15.1294	17.043	976.953	1.949	-1.1712	-0.4195
-12.0198	13.754	976.773	1.9927	-1.1581	-0.4326
-15.4882	19.2556	977.85	1.9665	-1.2149	-0.4151
-16.146	11.7208	972.527	1.9141	-1.1537	-0.4239
-13.8138	20.6908	978.268	1.9534	-1.2017	-0.4283
-16.3254	13.5746	967.564	1.8878	-1.1886	-0.4545
-13.0364	22.9034	979.524	2.0102	-1.2192	-0.4239
-18.3586	12.0796	970.614	1.9228	-1.1318	-0.4501
-10.7042	22.0064	983.471	1.984	-1.2061	-0.4457
-18.4184	12.6178	972.946	1.8441	-1.1624	-0.4108
-8.9102	20.631	981.557	1.9315	-1.1537	-0.4239
-19.0164	14.5314	970.614	1.8179	-1.1712	-0.4676
-9.568	19.9134	982.215	1.9665	-1.2236	-0.4894
-21.5878	13.9334	970.913	1.7873	-1.1362	-0.4632
-12.558	16.3254	978.986	1.9403	-1.1362	-0.4545
-20.1526	14.4716	970.375	1.8572	-1.1668	-0.4457
-9.1494	14.651	977.61	1.9315	-1.2061	-0.4457
-17.4018	16.6842	972.946	1.9009	-1.2454	-0.3977
-13.5148	13.8138	975.039	1.9272	-1.2323	-0.402
-16.6244	18.4184	976.953	1.866	-1.2498	-0.4283
-13.9932	14.7108	974.082	1.9053	-1.2586	-0.4326
-13.6942	22.1858	978.986	1.9446	-1.2454	-0.4414
-13.6942	14.651	973.783	1.8616	-1.2105	-0.4545
-10.3454	23.0828	982.693	1.9272	-1.2454	-0.402
-15.9068	11.5414	975.278	1.8835	-1.1187	-0.4588
-10.7042	20.7506	981.318	1.9359	-1.1318	-0.437
-18.1194	11.661	969.896	1.8223	-1.1581	-0.4938
-8.073	20.3918	981.677	1.9315	-1.1886	-0.4457
-18.9566	12.0198	968.521	1.8354	-1.1406	-0.4501
-11.3022	17.8204	979.165	1.9228	-1.2061	-0.4501
-22.2456	12.259	968.102	1.783	-1.1187	-0.4151
-9.4484	16.8038	980.959	1.9883	-1.1581	-0.437
-20.5712	15.1892	970.793	1.8791	-1.1974	-0.4151
-11.6012	15.9666	978.806	1.949	-1.1755	-0.4326
-19.0762	16.9832	973.963	1.9315	-1.228	-0.4151
-12.3786	17.1028	978.986	1.9315	-1.2192	-0.4588
-16.5048	19.2556	976.893	1.8835	-1.2454	-0.4501
-13.8138	14.352	976.295	1.8878	-1.1799	-0.4457
-13.156	20.6908	977.79	1.9228	-1.2498	-0.3933
-13.156	13.8138	974.74	1.9009	-1.1231	-0.4588
-11.2424	20.93	979.345	1.9359	-1.2192	-0.3802
-16.3254	11.7208	970.375	1.8616	-1.2017	-0.3977
-10.9434	21.0496	981.378	1.9534	-1.193	-0.4807
-18.239	10.465	969.717	1.8485	-1.1843	-0.4414
-11.1826	20.8104	980.421	1.9403	-1.193	-0.3933
-19.3752	12.3188	967.923	1.8179	-1.1712	-0.437
-9.5082	19.2556	982.155	1.9883	-1.2236	-0.4501
-21.229	13.3354	970.375	1.8354	-1.1974	-0.4283
-11.3022	17.5812	981.737	1.949	-1.2367	-0.472
-20.6908	13.8736	971.092	1.8398	-1.228	-0.4938
-8.8504	17.8802	980.361	1.9053	-1.2105	-0.4588
-18.5978	16.8038	973.006	1.9097	-1.1843	-0.4501
-12.0198	16.0862	978.328	1.9665	-1.1537	-0.4676
-18.1792	17.2224	974.082	1.8791	-1.1668	-0.4763
-11.5414	15.3686	977.491	1.9446	-1.1799	-0.4588
-14.8304	19.2556	976.594	1.9009	-1.1974	-0.4064
-14.4118	13.8138	972.288	1.9228	-1.1668	-0.4457
-13.0364	21.827	979.105	1.9578	-1.2105	-0.4195
-16.0264	12.0198	973.006	1.9228	-1.1755	-0.4457
-12.558	22.2456	980.899	1.9883	-1.1843	-0.3846
-19.0762	11.2424	969.956	1.8835	-1.1624	-0.4457
-10.1062	21.3486	981.318	1.9097	-1.228	-0.4763
-18.4782	12.857	970.973	1.866	-1.1843	-0.437
-10.5846	20.3918	980.72	1.9272	-1.2149	-0.4632
-20.9898	12.558	970.793	1.8485	-1.228	-0.4414
-9.1494	18.538	981.677	1.9927	-1.228	-0.4851
-20.033	14.651	969.956	1.866	-1.1668	-0.4239
-9.5082	16.5048	980.84	1.9534	-1.193	-0.4283
-18.7772	14.8304	969.478	1.8354	-1.2061	-0.402
-9.6278	16.8038	981.139	2.0015	-1.228	-0.4588
-17.8802	16.5048	974.022	1.8878	-1.1886	-0.437
-12.7972	14.8902	975.996	1.8835	-1.1537	-0.4457
-15.1892	20.033	976.654	1.8529	-1.2323	-0.4239
-12.4384	13.3952	974.381	1.866	-1.2105	-0.4414
-13.3354	22.0662	978.986	1.9315	-1.2411	-0.4588
-16.5646	12.259	971.69	1.8704	-1.1668	-0.4239
-11.8404	20.5114	980.6	1.9534	-1.2192	-0.4763
-16.3852	11.7806	971.989	1.8004	-1.2192	-0.4283
-11.96	21.7074	979.584	1.9272	-1.2105	-0.437
-18.5978	11.661	970.674	1.8704	-1.1362	-0.4283
-9.6876	20.93	981.617	1.9621	-1.1843	-0.4326
-20.033	13.156	969.537	1.8441	-1.2061	-0.437
-9.8072	18.2988	982.215	1.9446	-1.1799	-0.4239
-19.9732	12.7374	968.82	1.8267	-1.1755	-0.402
-8.1926	18.1194	982.036	1.949	-1.228	-0.4283
-18.3586	15.4882	970.135	1.8704	-1.1581	-0.4064
-11.3022	17.2224	979.105	1.949	-1.193	-0.3977
-18.8968	17.1626	974.68	1.8747	-1.1974	-0.437
-11.8404	15.249	977.012	1.949	-1.1537	-0.4457
-16.5048	18.837	976.175	1.8966	-1.2061	-0.4501
-13.0364	13.6344	973.125	1.9053	-1.2017	-0.4151
-13.6344	20.0928	978.806	1.9446	-1.2848	-0.4239
-14.1726	12.4982	974.082	1.866	-1.2105	-0.4239
-13.9334	20.7506	979.464	1.8616	-1.2061	-0.4326
-17.2822	11.1228	972.049	1.8354	-1.1843	-0.4108
-11.5414	21.5878	980.062	1.9315	-1.2061	-0.4326
-17.2224	11.8404	970.195	1.8616	-1.1843	-0.4545
-11.063	20.9898	981.378	2.0102	-1.2586	-0.4588
-19.6742	11.7208	968.64	1.8398	-1.1799	-0.4588
-9.7474	19.6742	983.471	1.9534	-1.228	-0.437
-20.033	12.7374	970.135	1.8092	-1.1712	-0.4108
-9.867	19.435	980.72	1.8835	-1.1755	-0.4064
-20.8104	15.3686	970.494	1.8616	-1.1799	-0.4588
-9.6876	17.5214	981.318	1.9228	-1.1581	-0.437
-19.7938	16.3852	972.707	1.8179	-1.1843	-0.4545
-13.2756	16.146	976.773	1.9315	-1.1231	-0.472
-16.2656	16.9234	975.458	1.8835	-1.2061	-0.437
-10.5846	14.8304	975.458	1.9141	-1.2367	-0.4501
-15.1294	20.332	976.474	1.949	-1.2498	-0.4283
-15.3088	12.4384	973.066	1.9184	-1.2236	-0.4195
-14.5314	20.631	979.345	1.9097	-1.2498	-0.4457
-16.0862	11.1826	971.69	1.8092	-1.1275	-0.4501
-11.96	20.93	979.943	1.9097	-1.2192	-0.4807
-16.8636	11.063	969.896	1.8267	-1.1624	-0.437
-10.6444	20.7506	982.095	1.9446	-1.2061	-0.4501
-17.8204	12.0198	971.212	1.8267	-1.1581	-0.4414
-11.7806	19.5546	981.139	1.9359	-1.2017	-0.3846
-20.2722	13.455	969.298	1.8485	-1.1668	-0.4239
-8.5514	20.5712	982.095	2.0102	-1.1755	-0.4501
-19.136	14.352	969.956	1.8398	-1.1493	-0.4588
-10.2258	18.4184	980.541	1.9883	-1.1581	-0.4632
-19.3154	13.9932	971.331	1.8747	-1.1843	-0.4588
-9.9866	16.8038	980.421	1.9359	-1.1843	-0.437
-18.538	17.94	973.185	1.8572	-1.1974	-0.4894
-12.259	14.8902	975.697	1.9053	-1.1406	-0.4763
-16.3852	19.9732	974.8	1.9097	-1.2149	-0.4414
-13.754	13.6942	975.218	1.9097	-1.2017	-0.472
-14.7108	19.5546	978.627	1.9578	-1.1799	-0.4588
-15.548	11.362	972.408	1.8835	-1.1449	-0.4151
-12.3786	20.5114	980.002	1.9709	-1.1581	-0.4239
-15.3088	12.6776	973.006	1.8529	-1.1537	-0.437
-11.5414	20.93	979.883	1.8747	-1.2149	-0.3977
-20.033	12.4384	969.597	1.8922	-1.1886	-0.4414
-10.3454	20.3918	982.574	1.9403	-1.1755	-0.4414
-18.8968	12.3188	968.521	1.8485	-1.1493	-0.3977
-9.3886	20.033	982.753	1.9359	-1.1537	-0.4414
-18.538	12.558	967.923	1.8747	-1.1843	-0.472
-7.5946	18.9566	983.83	1.9927	-1.2105	-0.4457
-20.033	14.95	970.793	1.8704	-1.1712	-0.4151
-11.4218	16.0862	979.883	1.949	-1.1449	-0.4326
-18.837	16.6842	972.707	1.8747	-1.2192	-0.4239
-10.5846	16.2058	976.295	1.9621	-1.1712	-0.437
-16.6244	19.1958	976.474	1.9752	-1.1755	-0.472
-14.2324	13.8736	974.082	1.9272	-1.1668	-0.5025
-15.6676	18.837	978.687	1.9578	-1.1974	-0.4545
-14.2324	12.4982	974.321	1.8966	-1.2236	-0.472
-14.2324	21.2888	977.491	1.9009	-1.2192	-0.437
-16.9234	13.3354	971.152	1.8878	-1.1799	-0.4457
-10.764	22.6642	980.84	1.9927	-1.2192	-0.4632
-18.2988	11.1228	970.793	1.8398	-1.1581	-0.4239
-11.9002	20.7506	982.275	1.9883	-1.1668	-0.4632
-19.1958	10.5248	968.64	1.866	-1.1712	-0.437
-8.372	20.033	983.889	2.0233	-1.2323	-0.3758
-18.9566	14.2922	969.059	1.8485	-1.1974	-0.3889
-10.2258	19.0762	981.677	1.9883	-1.1755	-0.4064
-21.3486	14.5314	970.375	1.8835	-1.2017	-0.437
-9.8072	17.7606	978.866	1.9796	-1.1362	-0.472
-17.5812	16.146	973.664	1.866	-1.193	-0.4195
-11.0032	15.4284	975.278	1.9184	-1.1799	-0.3977
-16.5048	18.4782	975.458	1.9097	-1.2236	-0.4501
-11.6012	13.8736	977.67	1.949	-1.1362	-0.4457
-15.847	19.5546	977.072	1.9097	-1.1886	-0.4108
-15.9666	12.6776	973.185	1.831	-1.1799	-0.4239
-13.3952	21.229	978.029	1.9578	-1.1886	-0.437
-14.8902	12.6178	971.989	1.8878	-1.2192	-0.4501
-12.4982	21.827	980.242	2.0189	-1.2498	-0.4239
-17.5812	10.8836	971.212	1.9097	-1.1449	-0.4545
-10.4052	20.332	982.933	2.0058	-1.1974	-0.437
-18.9566	12.1992	969.836	1.8616	-1.2017	-0.4151
-9.5082	20.332	981.916	1.9621	-1.2192	-0.4151
-19.4948	14.4716	968.461	1.8354	-1.2105	-0.4283
-9.0298	20.4516	982.574	2.0102	-1.1974	-0.4326
-20.033	13.6942	971.331	1.9228	-1.1843	-0.4414
-11.1826	17.4616	979.225	1.9752	-1.1493	-0.4807
-19.0164	14.95	971.87	1.8223	-1.1406	-0.5025
-8.8504	16.3852	979.584	2.0015	-1.1406	-0.4632
-17.342	17.9998	974.142	1.8791	-1.193	-0.4632
-14.053	14.4118	976.355	1.8966	-1.1843	-0.4414
-17.2224	18.7174	975.816	1.8835	-1.2105	-0.437
-13.9932	12.558	974.8	1.8529	-1.1537	-0.4457
-13.9932	21.1692	977.491	1.9272	-1.1974	-0.4588
-15.0098	11.2424	971.75	1.8704	-1.1668	-0.5025
-11.96	20.0928	979.524	1.9578	-1.2323	-0.4545
-16.9234	12.3786	971.929	1.8616	-1.1493	-0.3889
-11.96	20.8702	981.557	1.9359	-1.1712	-0.4457
-19.0164	11.4816	969.777	1.8616	-1.1843	-0.437
-9.8072	22.3652	982.394	1.9971	-1.1843	-0.4545
-18.4782	12.1992	969.956	1.8398	-1.1799	-0.4632
-9.5082	20.2124	982.036	1.984	-1.1712	-0.4632
-20.0928	13.2158	969.597	1.8529	-1.1624	-0.4108
-8.7906	17.4616	982.634	1.9709	-1.1799	-0.4501
-19.6742	15.0696	971.092	1.8485	-1.2105	-0.4588
-11.063	17.4616	977.431	1.8922	-1.2017	-0.4851
-18.538	17.5812	973.305	1.8878	-1.1974	-0.4457
-11.1228	15.6676	976.953	1.9446	-1.2061	-0.4195
-17.8802	18.8968	976.654	1.8922	-1.2149	-0.4326
-14.1128	12.558	974.321	1.9097	-1.1449	-0.4064
-13.8736	19.136	978.328	1.9359	-1.2149	-0.4108
-13.9334	13.6942	974.8	1.8922	-1.228	-0.437
-12.1992	20.9898	979.404	1.8878	-1.2061	-0.4414
-17.8204	11.9002	971.451	1.8267	-1.1581	-0.4501
-12.7374	21.3486	980.361	1.949	-1.228	-0.4457
-17.8204	11.0032	969.956	1.8572	-1.193	-0.4239
-10.166	21.4682	980.66	1.9534	-1.2236	-0.4807
-18.538	12.0198	968.162	1.8572	-1.1449	-0.437
-8.7308	19.9134	983.77	1.9796	-1.1974	-0.437
-20.332	13.0364	969.956	1.7961	-1.1624	-0.3802
-11.0032	18.4782	981.617	1.949	-1.1886	-0.4108
-19.6742	15.1892	971.092	1.8485	-1.1755	-0.4588
-8.7308	17.4018	979.345	1.9578	-1.1712	-0.4501
-18.1792	16.5646	973.723	1.8616	-1.1974	-0.4632
-12.3786	14.5314	977.491	1.9403	-1.1318	-0.4326
-16.3254	16.445	974.62	1.9446	-1.2105	-0.4239
-12.259	14.651	976.594	1.9053	-1.1668	-0.3977
-15.6078	20.0928	975.757	1.9141	-1.228	-0.4064
-14.7706	12.9168	973.484	1.8747	-1.1843	-0.4414
-14.4118	21.4084	977.311	1.9403	-1.2105	-0.4676
-16.3254	11.6012	973.006	1.9009	-1.1755	-0.4894
-13.0364	21.3486	981.198	2.0146	-1.2367	-0.4326
-17.7008	10.764	969.418	1.8441	-1.1581	-0.4195
-9.5082	20.631	983.291	1.9971	-1.1886	-0.4326
-18.0596	12.259	969.717	1.8572	-1.1581	-0.4632
-10.5846	22.0662	981.856	1.9883	-1.1755	-0.4414
-20.2124	13.0962	969.896	1.8704	-1.193	-0.4632
-9.1494	18.5978	981.737	1.949	-1.2498	-0.4501
-19.7938	14.7706	969.657	1.8441	-1.1974	-0.4195
-9.3886	17.5812	979.644	1.9359	-1.1974	-0.4151
-16.9832	15.4284	972.109	1.8616	-1.2061	-0.472
-9.3886	16.8038	980.002	1.9184	-1.228	-0.4588
-19.136	16.3254	973.185	1.8529	-1.1843	-0.4064
-13.3952	13.8736	976.115	1.8878	-1.1318	-0.4457
-15.6078	20.2124	975.099	1.8878	-1.1799	-0.4545
-12.259	13.2158	974.082	1.8922	-1.1537	-0.4457
-14.1726	20.8702	978.388	1.9315	-1.193	-0.4064
-16.5646	11.661	970.913	1.8791	-1.1449	-0.4239
-13.0364	20.631	982.275	1.9796	-1.1843	-0.4501
-16.744	11.9002	970.434	1.8048	-1.1449	-0.3889
-12.1992	22.9034	980.421	1.9359	-1.2367	-0.4195
-19.435	12.7374	969.717	1.8354	-1.1843	-0.4545
-10.166	22.0662	982.215	1.9665	-1.2498	-0.4676
-20.1526	13.2158	970.913	1.8223	-1.1712	-0.4326
-10.5846	19.7938	981.497	1.9709	-1.1886	-0.437
-10.5846	13.3952	970.076	1.8135	-1.1668	-0.5025
-20.1526	18.7174	981.796	1.9665	-1.2498	-0.5113
-7.774	18.7174	970.674	1.8223	-1.1974	-0.437
-18.5978	16.3852	979.046	1.8922	-1.228	-0.4151
-9.7474	16.146	971.929	1.8835	-1.228	-0.4501
-19.3154	16.8038	978.208	1.9315	-1.1755	-0.4763
-11.4218	14.5314	978.208	1.9141	-1.1537	-0.4632
-16.3254	17.5214	975.338	1.8878	-1.1449	-0.4457
-13.5148	13.3952	973.783	1.9359	-1.2061	-0.4763
-13.9334	18.837	978.029	1.9315	-1.1624	-0.472
-14.053	12.6776	973.963	1.9009	-1.1886	-0.4195
-15.1892	20.8702	978.806	1.8354	-1.1275	-0.4239
-17.5812	11.2424	971.212	1.9272	-1.2149	-0.4632
-11.0032	22.0662	980.541	1.8616	-1.228	-0.4676
-16.9832	12.4384	969.777	2.0102	-1.1886	-0.4064
-10.5248	22.3054	981.497	1.8747	-1.1537	-0.4545
-18.837	10.764	969.717	2.0102	-1.2061	-0.4239
-9.5082	20.2722	983.65	1.8835	-1.1449	-0.402
-19.6742	12.558	969.896	1.9665	-1.2192	-0.472
-8.5514	18.3586	982.155	1.8441	-1.2673	-0.4545
-19.4948	15.4284	969.119	1.9228	-1.1537	-0.4676
-9.2092	18.2988	981.497	1.8835	-1.1624	-0.4239
-19.4948	16.5048	972.109	1.8835	-1.1537	-0.437
-13.3354	15.847	977.072	1.8572	-1.1799	-0.4064
-16.8038	16.146	974.561	1.9359	-1.2017	-0.437
-11.1826	14.8902	976.474	1.9359	-1.2105	-0.4851
-14.8902	19.7938	976.773	1.9315	-1.1843	-0.4763
-15.4882	12.3786	973.903	1.8747	-1.1843	-0.4588
-14.1128	20.3918	979.285	1.9359	-1.1712	-0.4588
-16.2656	11.661	971.032	1.8791	-1.1712	-0.472
-11.9002	21.6476	980.242	1.9359	-1.2017	-0.472
-16.3254	10.2258	969.777	1.8267	-1.1581	-0.4457
-10.0464	21.229	983.052	1.9621	-1.2586	-0.472
-17.7606	11.0032	969.836	1.8441	-1.1886	-0.4414
-10.3454	19.7938	981.438	1.984	-1.2323	-0.4457
-19.734	14.2324	969.238	1.8179	-1.1799	-0.4239
-7.7142	19.9134	981.557	1.9752	-1.2411	-0.4501
-19.435	14.7706	971.571	1.8922	-1.1668	-0.4283
-11.1228	17.94	980.182	1.9752	-1.1712	-0.4457
-19.7938	14.651	971.929	1.8616	-1.193	-0.4807
-9.3886	16.3254	980.541	1.9315	-1.193	-0.4588
-19.4948	18.2988	972.946	1.8616	-1.1624	-0.4108
-12.7374	15.1892	976.414	1.8966	-1.1886	-0.4283
-16.2656	19.1958	976.295	1.9141	-1.1799	-0.437
-13.5746	13.3354	974.262	1.9184	-1.1799	-0.4195
-14.8304	20.033	979.046	1.9534	-1.2192	-0.4588
-16.6842	10.2856	970.973	1.8441	-1.11	-0.4632
-12.6776	21.1692	981.139	1.9446	-1.228	-0.4807
-15.1892	11.7806	971.511	1.8529	-1.1886	-0.4588
-11.063	21.3486	980.122	1.9403	-1.2105	-0.3933
-19.2556	13.0962	969.537	1.8441	-1.1843	-0.4239
-9.6278	20.332	982.155	1.9184	-1.1799	-0.4151
-18.6576	13.156	971.152	1.8354	-1.1449	-0.4195
-9.3288	19.7938	980.6	1.9315	-1.1799	-0.4457
-18.9566	13.2158	969.836	1.8878	-1.1712	-0.3846
-7.8338	18.837	982.933	1.9971	-1.1493	-0.4283
-19.9134	15.1892	971.75	1.8529	-1.1712	-0.4151
-11.661	16.8636	980.301	1.8878	-1.1318	-0.4676
-19.3752	16.3852	971.511	1.831	-1.1362	-0.4108
-10.764	15.7872	976.773	1.9403	-1.1318	-0.4283
-16.8636	19.0164	976.056	1.9097	-1.2454	-0.4414
-13.6942	12.9168	974.142	1.8529	-1.2017	-0.4457
-15.7872	19.136	977.491	1.8747	-1.1974	-0.4545
-14.2324	11.9002	973.544	1.8704	-1.1755	-0.4894
-13.156	20.631	978.089	1.9315	-1.2061	-0.4414
-15.9666	13.0962	971.331	1.8922	-1.1886	-0.4414
-11.6012	22.425	980.361	1.9359	-1.2105	-0.4545
-16.9234	12.259	973.185	1.8572	-1.1537	-0.4151
-11.9002	21.3486	981.079	1.9578	-1.1537	-0.4457
-18.9566	11.0032	969.836	1.8704	-1.1668	-0.4938
-7.5946	19.4948	983.351	1.9534	-1.2192	-0.4807
-17.94	14.2922	968.88	1.8004	-1.1712	-0.4151
-9.8072	19.4948	982.753	1.9621	-1.1624	-0.4414
-20.93	13.9932	968.88	1.8791	-1.1537	-0.4545
-9.568	17.7606	980.361	1.9403	-1.1974	-0.437
-18.4782	16.0862	971.989	1.8922	-1.1974	-0.4283
-11.0032	15.0098	975.936	1.9315	-1.1668	-0.4501
-16.8038	17.342	975.936	1.8747	-1.2892	-0.4283
-12.0796	14.5314	976.056	1.9272	-1.2149	-0.4326
-16.2058	19.3752	977.969	1.8966	-1.2017	-0.4326
-16.146	13.2158	972.767	1.8529	-1.1493	-0.3846
-13.9932	21.8868	978.328	1.9446	-1.2149	-0.437
-15.0696	12.1394	972.468	1.866	-1.2192	-0.4239
-12.857	21.9466	979.345	1.9272	-1.2367	-0.4457
-17.1028	10.8836	971.331	1.8529	-1.1449	-0.4807
-10.2856	20.0928	982.155	1.949	-1.228	-0.4501
-18.239	12.4982	969.717	1.8004	-1.1712	-0.4632
-10.2258	20.0928	981.019	1.9403	-1.2017	-0.4545
-19.3752	13.6942	968.64	1.8354	-1.1712	-0.4457
-8.5514	20.0928	981.916	2.0058	-1.2323	-0.4414
-20.5712	13.8138	970.674	1.9228	-1.1886	-0.4195
-10.7042	16.8636	979.584	1.9927	-1.1712	-0.437
-18.8968	15.0696	972.527	1.9141	-1.2236	-0.4064
-9.5082	16.5048	979.823	1.9403	-1.228	-0.4239
-18.2988	16.9234	973.783	1.8398	-1.1624	-0.4283
-13.5746	15.4284	976.056	1.8835	-1.2105	-0.4326
-17.7606	19.1958	975.697	1.8835	-1.2323	-0.402
-13.754	12.9766	975.099	1.9272	-1.1799	-0.5025
-14.7108	21.229	977.85	1.9665	-1.2454	-0.4195
-14.352	12.6776	971.571	1.8878	-1.1362	-0.4239
-11.6012	21.1094	981.198	1.9665	-1.228	-0.4501
-16.5048	12.3188	972.468	1.8529	-1.2367	-0.4283
-12.558	21.4084	980.84	1.8878	-1.1537	-0.3802
-19.0164	11.4218	969.717	1.8048	-1.1799	-0.4414
-9.5082	21.6476	980.899	1.9621	-1.2498	-0.4545
-18.4782	13.6942	969.418	1.8441	-1.1843	-0.4414
-9.6278	20.4516	982.634	2.0015	-1.2061	-0.4283
-20.5114	12.3786	969.119	1.8878	-1.1799	-0.4151
-8.8504	17.5812	983.531	2.0452	-1.1712	-0.437
-19.3154	14.95	970.434	1.866	-1.1799	-0.4283
-10.3454	16.9832	979.345	1.8922	-1.2236	-0.4151
-18.538	17.1028	972.169	1.9053	-1.1799	-0.4588
-10.9434	15.0098	977.371	1.9228	-1.1493	-0.437
-17.4616	18.1194	975.757	1.9141	-1.2105	-0.4108
-14.2324	12.7972	973.903	1.8878	-1.1493	-0.4414
-13.6344	19.6144	978.507	1.9403	-1.1843	-0.4151
-13.5746	13.6942	973.424	1.8616	-1.1668	-0.4588
-13.455	21.8868	979.943	1.9446	-1.2192	-0.4632
-17.043	11.8404	971.87	1.8398	-1.1406	-0.472
-12.7374	21.827	979.404	1.9403	-1.193	-0.5069
-17.4616	11.7806	971.212	1.8922	-1.193	-0.4545
-9.7474	20.9898	982.036	1.9446	-1.1886	-0.4501
-19.2556	11.8404	967.803	1.8441	-1.1843	-0.4545
-8.7308	20.332	983.471	1.9883	-1.2149	-0.4588
-19.6144	13.3952	969.836	1.8572	-1.1624	-0.4588
-10.4052	19.0762	982.394	1.9534	-1.1886	-0.437
-20.5712	14.651	969.358	1.8223	-1.2017	-0.3977
-8.4916	17.1626	980.062	1.949	-1.2542	-0.4414
-18.7772	17.1028	972.826	1.8878	-1.2105	-0.4588
-11.3022	15.9666	976.474	1.9097	-1.1712	-0.4501
-16.9832	16.6244	977.012	1.9009	-1.1886	-0.4283
-11.9002	14.352	976.115	1.8878	-1.2105	-0.437
-16.0264	18.7174	976.295	1.9053	-1.2149	-0.4545
-14.053	13.0364	974.022	1.8747	-1.228	-0.4894
-12.7374	21.3486	976.833	1.9228	-1.228	-0.437
-15.3686	12.558	974.082	1.8922	-1.2061	-0.4588
-13.9932	20.7506	979.943	1.9359	-1.2542	-0.4588
-18.1792	10.6444	970.494	1.8704	-1.1712	-0.4938
-10.465	21.528	981.796	1.9796	-1.2804	-0.4151
-16.8038	12.558	969.657	1.8485	-1.2061	-0.437
-10.5846	21.7672	982.514	1.9752	-1.2192	-0.4195
-21.7672	13.156	968.162	1.8616	-1.1581	-0.4676
-10.2258	19.0762	982.215	1.9752	-1.2105	-0.4676
-19.8536	14.4716	970.195	1.8835	-1.1755	-0.4545
-9.867	18.9566	979.703	1.9927	-1.1668	-0.4414
-17.8802	15.1294	972.647	1.8835	-1.2454	-0.4283
-10.2258	16.6842	979.285	1.9053	-1.2498	-0.4195
-19.3752	17.4616	973.723	1.8398	-1.2367	-0.4108
-12.0198	14.8902	977.371	1.9141	-1.1712	-0.437
-16.2058	19.3752	975.099	1.8791	-1.2149	-0.4283
-12.7972	13.754	975.936	1.8747	-1.1537	-0.4239
-14.4716	19.7938	976.534	1.9228	-1.1668	-0.4326
-14.8304	11.4218	972.468	1.8922	-1.1799	-0.4676
-11.661	20.6908	982.036	1.9665	-1.1712	-0.4545
-15.6676	11.1826	970.614	1.8835	-1.1493	-0.4457
-11.661	21.5878	980.541	1.9883	-1.228	-0.4108
-18.1792	11.9002	968.88	1.8616	-1.1581	-0.4195
-9.568	21.7672	983.65	1.9927	-1.1843	-0.4545
-20.1526	12.7972	969.537	1.8529	-1.193	-0.437
-11.6012	19.3752	981.976	1.9665	-1.1755	-0.4064
-19.8536	12.0198	969.358	1.8835	-1.2236	-0.4457
-7.4152	19.6144	982.036	1.9796	-1.2105	-0.4501
-18.3586	15.6676	970.913	1.8441	-1.2367	-0.3889
-10.5846	16.6842	979.703	1.8791	-1.2061	-0.4195
-20.5114	16.744	971.63	1.8966	-1.2061	-0.4414
-11.1228	15.1294	977.909	1.9534	-1.1843	-0.4501
-16.146	18.7772	975.398	1.9053	-1.1886	-0.4195
-12.0198	13.8736	973.484	1.8704	-1.2017	-0.4632
-14.4716	19.9732	978.208	1.9359	-1.2061	-0.4457
-14.2324	12.558	973.963	1.8441	-1.1624	-0.4108
-14.352	20.2124	979.763	1.8966	-1.2149	-0.4239
-16.5048	12.1394	971.092	1.8398	-1.2061	-0.4545
-11.1228	21.528	980.6	1.9446	-1.228	-0.4676
-17.5214	11.8404	970.733	1.9097	-1.2017	-0.4283
-11.6012	22.126	980.959	1.9927	-1.2192	-0.4151
-19.3752	10.4052	969.896	1.8441	-1.1974	-0.4108
-9.0896	20.6908	982.693	1.949	-1.1799	-0.4501
-19.9134	13.3952	969.836	1.8223	-1.1581	-0.4326
-9.269	17.8204	980.899	1.9446	-1.2323	-0.4457
-20.4516	15.6676	969.777	1.866	-1.2323	-0.4938
-9.3886	18.2988	980.6	1.9665	-1.2717	-0.4195
-19.435	16.146	973.604	1.9097	-1.193	-0.4064
-11.8404	15.1294	976.654	1.9621	-1.1406	-0.4239
-17.7008	16.9234	975.099	1.9403	-1.2149	-0.472
-10.8238	14.2922	976.713	1.8878	-1.2017	-0.4457
-15.4882	19.2556	976.474	1.9053	-1.1843	-0.4326
-15.548	13.3952	974.501	1.9184	-1.1449	-0.472
-14.7108	20.033	977.85	1.8922	-1.1843	-0.4545
-15.6078	11.4816	972.228	1.8922	-1.1974	-0.4851
-12.3188	22.6044	979.823	1.9665	-1.1755	-0.4632
-16.9234	10.6444	969.777	1.8572	-1.1318	-0.4151
-10.1062	21.9466	982.454	1.9883	-1.2454	-0.4414
-18.6576	11.6012	969.836	1.8398	-1.1712	-0.4457
-11.063	19.9134	983.291	1.9665	-1.1624	-0.3933
-20.631	13.2158	968.88	1.8092	-1.1668	-0.4632
-8.4318	19.9732	981.258	1.9665	-1.2061	-0.437
-18.8968	15.1892	971.69	1.8704	-1.1712	-0.4195
-10.0464	17.8802	979.644	1.9665	-1.1886	-0.4108
-20.1526	14.95	972.527	1.8835	-1.2061	-0.4676
-10.1062	15.847	979.225	1.9665	-1.1537	-0.4457
-18.8968	16.445	972.767	1.8616	-1.1581	-0.4807
-12.259	16.744	975.517	1.8791	-1.1886	-0.4501
-16.8636	18.5978	974.979	1.9053	-1.2105	-0.4457
-13.0962	14.2922	975.398	1.9315	-1.1799	-0.4938
-16.445	20.5712	978.089	1.9403	-1.1624	-0.4326
-15.548	11.3022	971.989	1.866	-1.0925	-0.4239
-11.7806	21.5878	981.139	1.9184	-1.2411	-0.4501
-14.95	12.3188	970.674	1.8398	-1.2149	-0.4545
-11.5414	21.827	981.378	1.9578	-1.2236	-0.4632
-19.3752	11.8404	970.375	1.8747	-1.1886	-0.4545
-10.764	20.8104	982.036	1.9796	-1.2323	-0.4501
-18.4782	12.4384	970.674	1.8267	-1.1843	-0.4545
-9.1494	19.9134	979.883	1.9228	-1.2192	-0.4588
-19.1958	12.6178	970.375	1.8704	-1.1843	-0.4457
-8.3122	17.1028	982.753	1.9621	-1.193	-0.402
-20.631	14.352	970.135	1.8135	-1.1712	-0.3977
-11.7806	17.4018	979.584	1.8966	-1.1886	-0.4283
-18.7772	16.6842	971.391	1.8791	-1.1974	-0.4457
-10.7042	16.6244	978.149	1.9752	-1.193	-0.4851
-16.8636	19.1958	974.979	1.9097	-1.1799	-0.437
-13.5148	13.156	974.919	1.9009	-1.1406	-0.437
-14.8304	19.6144	980.182	1.9228	-1.228	-0.4064
-13.8138	13.156	972.826	1.8747	-1.1755	-0.437
-13.3354	21.6476	980.182	1.9272	-1.1799	-0.4326
-16.3852	12.3786	969.537	1.8004	-1.1493	-0.4151
-12.3786	22.3652	980.481	1.9709	-1.2236	-0.4283
-17.043	11.362	971.69	1.8354	-1.1843	-0.4239
-11.4816	20.93	980.899	1.9359	-1.1624	-0.3715
-20.332	10.764	968.939	1.8398	-1.1668	-0.3977
-8.7308	19.435	982.275	1.9621	-1.1712	-0.4326
-18.837	13.6942	969.298	1.8267	-1.1843	-0.4326
-9.867	19.435	981.796	2.0189	-1.2149	-0.4283
-20.8104	14.4118	969.777	1.8878	-1.193	-0.4457
-9.8072	17.2822	980.84	1.9534	-1.1449	-0.4283
-18.8968	16.5646	971.81	1.8572	-1.2192	-0.4108
-9.9866	15.9666	977.969	1.9272	-1.1886	-0.437
-16.2656	16.8636	976.235	1.8529	-1.1712	-0.4632
-11.9002	14.2324	976.414	1.9272	-1.1449	-0.4414
-16.445	18.1194	977.491	1.866	-1.1712	-0.4239
-14.4118	13.6344	973.365	1.8616	-1.1799	-0.4457
-13.9932	21.9466	978.208	1.9184	-1.2367	-0.4588
-14.5314	12.1394	972.468	1.8791	-1.1974	-0.4414
-13.9334	21.7672	978.687	1.9403	-1.2061	-0.3802
-18.3586	10.6444	970.494	1.8878	-1.1755	-0.402
-11.063	20.7506	983.112	1.984	-1.1581	-0.402
-18.3586	11.8404	970.554	1.8791	-1.1624	-0.4064
-10.6444	21.3486	981.318	1.9971	-1.228	-0.4457
-20.7506	13.0364	969.119	1.8529	-1.2061	-0.4545
-8.9102	20.033	982.634	1.9621	-1.2192	-0.4414
-20.4516	14.651	970.375	1.8572	-1.2017	-0.4545
-10.9434	17.7008	980.84	1.9403	-1.1624	-0.4501
-19.435	13.3952	971.391	1.8572	-1.2149	-0.5069
-8.5514	17.4018	979.883	1.9446	-1.2542	-0.472
-17.5214	16.6244	972.647	1.8878	-1.1843	-0.4501
-11.6012	15.548	976.594	1.9097	-1.1624	-0.4195
-18.538	18.837	975.218	1.8878	-1.2192	-0.472
-12.7972	13.2158	976.474	1.9403	-1.1799	-0.4414
-15.0696	20.5712	977.072	1.8835	-1.1712	-0.4195
-15.0696	12.1394	970.913	1.8441	-1.1449	-0.402
-11.96	21.4682	981.557	1.9752	-1.228	-0.4151
-15.7274	10.8836	972.408	1.8398	-1.1843	-0.437
-13.5148	20.7506	981.079	1.9184	-1.2105	-0.472
-19.0762	11.1826	969.956	1.831	-1.2105	-0.4151
-9.4484	20.93	981.497	1.9665	-1.1843	-0.4326
-18.7174	13.9334	970.195	1.8747	-1.1537	-0.4545
-10.5248	19.7938	980.959	1.9578	-1.1581	-0.4064
-19.5546	12.4384	969.657	1.866	-1.1755	-0.4151
-9.1494	18.7174	983.291	1.9665	-1.193	-0.4283
-19.9732	14.2922	970.434	1.831	-1.1581	-0.4239
-9.867	17.8204	980.421	1.9228	-1.2061	-0.3846
-19.3154	17.4616	971.571	1.8529	-1.2629	-0.3933
-10.166	15.6078	978.567	1.9534	-1.1886	-0.4807
-17.9998	19.0164	975.278	1.9184	-1.1799	-0.437
-14.352	12.857	973.903	1.9009	-1.1712	-0.3889
-14.4118	19.1958	979.524	1.8966	-1.228	-0.4457
-12.9168	12.1394	973.066	1.8135	-1.1406	-0.4982
-13.8138	21.4084	979.404	1.9359	-1.193	-0.3977
-16.8636	11.4218	971.152	1.8572	-1.1624	-0.4283
-11.96	20.6908	979.584	1.9621	-1.1712	-0.4151
-17.4018	11.7208	971.69	1.8791	-1.1712	-0.4545
-10.7042	20.6908	980.421	1.9665	-1.2017	-0.402
-18.7772	11.063	969.238	1.8791	-1.1668	-0.4501
-8.7906	21.0496	984.248	1.9971	-1.1886	-0.437
-20.2124	13.2756	968.999	1.8747	-1.1624	-0.4545
-9.8072	19.3154	982.933	1.9228	-1.2105	-0.4414
-20.7506	14.651	968.461	1.8048	-1.1799	-0.4545
-8.2524	17.8204	981.258	1.9883	-1.1755	-0.4938
-18.8968	16.5646	971.989	1.8704	-1.2105	-0.4632
-11.5414	16.5048	976.654	1.9141	-1.1755	-0.4414
-17.4018	17.641	977.311	1.9272	-1.1668	-0.4239
-11.96	13.6942	975.637	1.8922	-1.1755	-0.4457
-16.0264	19.8536	976.893	1.8485	-1.2236	-0.4326
-14.352	13.455	973.365	1.8398	-1.1668	-0.4414
-13.0962	21.4084	977.85	1.9097	-1.2586	-0.5025
-16.3254	12.4982	973.006	1.8966	-1.2017	-0.437
-13.0962	21.4084	980.002	1.9403	-1.1843	-0.4676
-17.4018	10.2258	970.494	1.8048	-1.1581	-0.4414
-10.166	21.7074	981.976	1.9752	-1.228	-0.4588
-16.9234	12.1394	970.016	1.8529	-1.193	-0.4108
-10.1062	21.1692	982.873	1.949	-1.2323	-0.4632
-21.6476	13.0364	968.521	1.8048	-1.2105	-0.4676
-9.6278	18.4782	983.112	1.9534	-1.1755	-0.437
-19.2556	14.053	969.896	1.8572	-1.1537	-0.4632
-9.0298	18.9566	979.763	1.9009	-1.193	-0.4501
-18.2988	14.352	971.989	1.9141	-1.1843	-0.4283
-9.2092	15.9666	979.404	1.9228	-1.1668	-0.4239
-19.0164	16.9234	974.202	1.8529	-1.2192	-0.4632
-13.156	15.0098	976.474	1.866	-1.1799	-0.4108
-16.0264	19.2556	974.919	1.8835	-1.2236	-0.4064
-12.4982	14.5314	975.099	1.9184	-1.1799	-0.402
-14.4716	21.1692	977.909	1.9403	-1.1843	-0.4151
-15.0098	11.362	972.109	1.8485	-1.1624	-0.402
-13.2158	20.5712	981.139	1.9578	-1.2498	-0.3933
-16.6842	11.5414	971.75	1.8966	-1.1843	-0.3846
-11.661	21.4084	980.899	1.9709	-1.1843	-0.4326
-18.4184	12.9168	968.461	1.8529	-1.1843	-0.437
-9.5082	21.3486	982.394	2.0058	-1.1843	-0.4457
-19.9134	12.4384	969.896	1.8835	-1.1624	-0.3977
-9.9268	19.9134	981.976	1.949	-1.193	-0.4326
-19.1958	12.259	969.717	1.8616	-1.1581	-0.4239
-7.6544	18.6576	982.693	1.9752	-1.2192	-0.437
-18.6576	15.4882	970.614	1.8704	-1.2192	-0.437
-10.7042	16.6244	980.062	1.9359	-1.193	-0.4108
-20.0928	16.3254	972.587	1.8441	-1.1624	-0.437
-11.661	15.1294	977.551	1.9359	-1.193	-0.4108
-17.1028	18.2988	975.876	1.949	-1.1843	-0.3802
-17.1028	13.0364	973.365	1.8398	-1.1581	-0.4632
-12.3786	19.734	978.866	1.9228	-1.1974	-0.4851
-15.3686	19.734	974.142	1.9097	-1.1974	-0.4938
-14.1726	12.259	978.806	1.9665	-1.228	-0.437
-14.7706	20.3918	978.806	1.8835	-1.1843	-0.4545
-17.342	12.1992	971.212	1.9927	-1.2192	-0.437
-11.6012	21.3486	979.644	1.8791	-1.193	-0.4457
-16.5646	12.3786	971.75	1.9272	-1.2236	-0.4195
-11.96	22.1858	980.301	1.866	-1.1843	-0.4151
-18.7772	11.0032	969.836	1.984	-1.2454	-0.437
-7.7142	20.332	983.77	1.7961	-1.2017	-0.402
-19.7938	12.9766	968.939	1.9097	-1.2367	-0.4414
-9.4484	19.435	982.095	1.8135	-1.2236	-0.4632
-20.5712	13.9932	967.983	1.9578	-1.2454	-0.4414
-8.7308	18.837	981.198	1.9184	-1.2061	-0.3889
-19.435	16.8038	972.886	1.8966	-1.1843	-0.4064
-11.7806	14.7706	976.654	1.8835	-1.1799	-0.4545
-18.1194	16.0264	975.099	1.9228	-1.2017	-0.4588
-10.6444	14.4716	976.115	1.9009	-1.228	-0.4501
-14.7706	19.734	977.371	1.9009	-1.1886	-0.4239
-15.0098	13.754	973.664	1.866	-1.228	-0.4457
-15.249	20.033	977.969	1.9053	-1.1581	-0.4807
-15.7872	11.7806	973.245	1.8922	-1.1581	-0.4545
-13.3354	22.425	979.225	1.9009	-1.1799	-0.4501
-16.6842	10.8836	970.135	1.8398	-1.1537	-0.4326
-10.2856	21.229	982.275	1.9971	-1.2542	-0.4326
-18.6576	11.7208	969.418	1.8441	-1.193	-0.4283
-11.4816	20.5712	983.65	1.9752	-1.2236	-0.4676
-20.7506	12.0198	968.042	1.8092	-1.1755	-0.4414
-8.97	20.1526	981.677	1.9621	-1.2017	-0.4326
-19.0164	14.95	970.793	1.8704	-1.1712	-0.4588
-9.1494	17.1028	979.883	1.9578	-1.1624	-0.4545
-20.1526	14.5912	972.587	1.9097	-1.1886	-0.4239
-10.0464	15.6676	979.105	1.9621	-1.1799	-0.4151
-18.239	16.9832	973.664	1.8966	-1.228	-0.4545
-12.0796	15.4882	976.175	1.9272	-1.2498	-0.4326
-16.6842	19.435	974.68	1.9228	-1.2192	-0.472
-12.6178	13.455	976.534	1.9184	-1.1668	-0.4763
-16.2058	20.332	978.448	1.949	-1.1668	-0.4632
-15.3686	11.4218	971.511	1.8572	-1.0925	-0.4239
-12.1992	20.4516	981.318	1.9228	-1.2149	-0.4239
-15.249	12.0198	970.973	1.8441	-1.193	-0.4545
-11.4816	21.7672	980.481	1.949	-1.2017	-0.4239
-19.0762	11.7208	968.82	1.831	-1.1974	-0.4108
-10.764	21.4084	982.992	1.949	-1.2105	-0.4457
-19.435	12.4982	969.119	1.8485	-1.1755	-0.4545
-9.269	19.9732	980.72	1.9578	-1.193	-0.4239
-18.7174	12.857	970.614	1.8616	-1.1886	-0.4414
-8.1926	18.5978	983.052	1.9578	-1.1755	-0.4545
-21.0496	14.2922	971.152	1.8529	-1.1755	-0.4195
-11.1826	16.9832	979.165	1.9272	-1.1712	-0.4501
-19.4948	17.2822	971.75	1.8529	-1.1755	-0.4763
-9.867	15.249	977.85	1.9359	-1.1712	-0.4676
-17.342	19.3752	975.099	1.866	-1.1799	-0.437
-12.6776	12.9766	974.441	1.9053	-1.1712	-0.4457
-15.0098	18.4184	978.687	1.9359	-1.2061	-0.4588
-13.455	13.2158	973.664	1.8878	-1.1799	-0.4457
-14.1726	20.9898	979.644	1.949	-1.2498	-0.437
-16.8038	12.6178	971.331	1.866	-1.1668	-0.4414
-12.1992	21.827	980.301	1.9665	-1.2105	-0.3889
-17.4616	11.6012	971.81	1.8747	-1.1712	-0.402
-11.5414	21.3486	981.497	1.9709	-1.1624	-0.4108
-18.7772	10.8238	968.282	1.8267	-1.1449	-0.437
-8.1926	20.5114	983.471	1.9796	-1.1712	-0.437
-19.435	12.6178	969.478	1.8004	-1.1581	-0.437
-10.0464	19.734	981.497	1.9359	-1.2192	-0.4195
-21.2888	15.4882	969.896	1.8398	-1.1537	-0.3977
-8.7308	17.4018	980.6	1.9578	-1.193	-0.4195
-19.7938	16.5646	971.092	1.8966	-1.1712	-0.437
-10.465	15.9666	977.192	1.9534	-1.1581	-0.4283
-16.5646	16.5048	974.8	1.9272	-1.1712	-0.4283
-11.4816	15.0098	976.474	1.9272	-1.1668	-0.4457
-16.6244	19.0762	976.534	1.9228	-1.2411	-0.4283
-14.053	13.9932	974.202	1.9097	-1.1843	-0.4676
-14.95	20.6908	976.175	1.8835	-1.2061	-0.4151
-14.2922	12.857	972.946	1.8878	-1.193	-0.4326
-12.4384	21.6476	979.703	1.9971	-1.2192	-0.4326
-17.4018	10.4052	969.896	1.8791	-1.1755	-0.4326
-11.0032	20.8104	983.411	1.9665	-1.2323	-0.4632
-17.4018	10.764	970.016	1.783	-1.1886	-0.4457
-10.7042	21.5878	981.318	1.9403	-1.2236	-0.4457
-20.332	13.5148	968.162	1.8354	-1.1755	-0.437
-8.4318	19.435	982.215	1.984	-1.1974	-0.4807
-20.6908	14.5912	971.032	1.866	-1.1799	-0.4414
-10.3454	17.7008	980.242	2.0102	-1.1799	-0.4676
-19.4948	13.754	971.092	1.8922	-1.1886	-0.4457
-8.7906	17.1626	979.404	1.9534	-1.2236	-0.3802
-17.94	17.7008	973.424	1.9053	-1.1886	-0.4283
-12.3786	15.548	978.089	1.9709	-1.1493	-0.472
-18.3586	18.1792	974.381	1.8922	-1.1755	-0.4545
-13.5746	13.6344	975.876	1.8966	-1.1886	-0.4545
-14.4716	20.0928	977.311	1.8878	-1.193	-0.4938
-14.1726	12.558	970.494	1.8704	-1.2105	-0.4851
-12.259	21.5878	981.318	1.984	-1.228	-0.472
-16.0862	10.6444	971.272	1.9009	-1.1231	-0.4239
-13.5746	21.8868	981.198	1.9272	-1.2105	-0.4064
-18.4184	11.661	969.836	1.8529	-1.1843	-0.4457
-9.3886	21.827	980.959	1.9534	-1.2105	-0.4545
-18.5978	13.156	970.016	1.8572	-1.1799	-0.4414
-10.2856	20.3918	981.198	1.9971	-1.1843	-0.4283
-20.2124	12.3786	971.212	1.8704	-1.193	-0.4545
-8.7308	18.538	981.677	1.9534	-1.1974	-0.4414
-20.0928	15.1892	970.315	1.8179	-1.1493	-0.4501
-9.568	16.6842	980.002	1.9053	-1.1799	-0.4938
-19.136	17.043	970.255	1.866	-1.193	-0.4851
-11.2424	15.9666	979.943	1.9446	-1.1974	-0.472
-17.94	17.5214	975.218	1.9097	-1.1668	-0.4632
-13.156	13.455	974.501	1.9272	-1.1318	-0.4588
-15.1294	19.0164	977.79	1.949	-1.2149	-0.4414
-12.9168	12.4982	973.245	1.8529	-1.193	-0.4195
-13.5148	22.3652	979.883	1.9228	-1.2498	-0.4151
-16.6842	11.7806	970.853	1.8616	-1.1493	-0.4151
-12.4384	21.528	980.6	1.9665	-1.2411	-0.4414
-17.043	11.7208	971.152	1.8878	-1.2017	-0.4545
-10.8836	22.1858	980.899	1.9446	-1.2149	-0.4151
-17.1028	11.1228	970.733	1.8398	-1.1362	-0.4195
-9.0298	20.3918	983.291	1.9184	-1.1974	-0.4195
-20.5114	11.9002	969.358	1.8092	-1.1537	-0.4108
-9.867	18.239	981.557	1.949	-1.1799	-0.4239
-20.5114	15.0696	968.88	1.8485	-1.193	-0.4457
-8.1328	18.538	980.78	1.9272	-1.2105	-0.3846
-19.7938	16.445	971.212	1.8791	-1.1755	-0.3889
-11.1826	15.6676	977.252	1.949	-1.2017	-0.402
-17.5812	16.3852	975.278	1.9272	-1.1974	-0.4632
-11.5414	14.2922	976.833	1.9534	-1.1493	-0.4501
-16.146	19.1958	976.474	1.8747	-1.1974	-0.4632
-14.4716	13.5148	973.783	1.8354	-1.1843	-0.437
-13.754	21.0496	978.866	1.9184	-1.228	-0.4763
-14.8902	12.6178	972.707	1.8922	-1.1755	-0.4632
-13.3952	21.6476	979.703	1.9446	-1.1755	-0.4588
-17.342	9.6278	970.973	1.8398	-1.1712	-0.4457
-10.465	21.4084	981.497	1.9534	-1.2017	-0.4414
-17.2224	12.0796	969.478	1.831	-1.1275	-0.4195
-10.2258	20.5712	981.916	1.9665	-1.2061	-0.4151
-21.5878	13.6344	968.401	1.8529	-1.1712	-0.4239
-9.3288	19.136	982.335	1.949	-1.1799	-0.4588
-20.1526	14.7706	970.076	1.8398	-1.1712	-0.4195
-9.4484	18.4782	980.002	1.9315	-1.2105	-0.5025
-18.7174	14.4716	971.571	1.8747	-1.1886	-0.472
-9.3288	16.8038	980.959	1.9578	-1.1843	-0.4588
-19.8536	16.445	973.125	1.8966	-1.193	-0.4326
-12.7972	15.4284	977.61	1.9403	-1.193	-0.4676
-17.342	18.837	974.919	1.9053	-1.2105	-0.4283
-11.8404	14.4716	975.159	1.8922	-1.1843	-0.4676
-15.4284	20.93	977.072	1.9097	-1.228	-0.4414
-15.1294	11.362	971.929	1.9053	-1.193	-0.4414
-14.1128	20.7506	981.378	1.9796	-1.2367	-0.4108
-16.3852	10.9434	970.973	1.8835	-1.1755	-0.437
-11.6012	21.4682	981.019	1.9359	-1.2236	-0.4763
-17.94	12.259	970.135	1.8616	-1.1755	-0.4414
-10.1062	21.6476	981.617	1.9534	-1.1581	-0.4457
-19.3154	12.7972	971.092	1.8485	-1.1318	-0.4414
-10.465	19.6144	981.378	1.949	-1.1668	-0.472
-19.8536	12.3786	969.657	1.8398	-1.1974	-0.4283
-7.6544	18.9566	982.454	1.8922	-1.2454	-0.4501
-19.2556	15.0098	969.478	1.8048	-1.1974	-0.4588
-10.5846	17.7008	980.899	1.9534	-1.1886	-0.4283
-20.0928	15.847	971.69	1.8485	-1.2017	-0.4326
-10.465	15.548	978.208	1.9665	-1.1493	-0.4676
-17.342	17.94	974.68	1.9141	-1.1843	-0.4457
-12.6776	12.857	973.723	1.866	-1.1755	-0.4457
-14.352	20.0928	978.866	1.9578	-1.2105	-0.4807
-13.156	13.156	974.441	1.8572	-1.1755	-0.4938
-15.249	20.332	979.943	1.949	-1.2323	-0.4545
-16.9832	12.3188	971.87	1.8179	-1.1449	-0.437
-12.4982	21.8868	978.866	1.9578	-1.2542	-0.4545
-15.6078	12.4384	972.587	1.8704	-1.2192	-0.4763
-10.5248	21.7074	979.285	1.9097	-1.1581	-0.437
-19.136	11.5414	970.674	1.8529	-1.0925	-0.4195
-9.6278	19.6144	983.59	1.9796	-1.193	-0.4501
-19.3752	12.259	968.521	1.8441	-1.1755	-0.4632
-9.867	20.631	982.394	1.9709	-1.193	-0.4501
-20.631	14.2922	968.162	1.7917	-1.1668	-0.4195
-8.6112	18.8968	982.155	1.9315	-1.2236	-0.4457
-20.93	14.7706	971.989	1.8747	-1.1712	-0.4195
-11.0032	15.1294	977.491	1.949	-1.1449	-0.4763
-17.8204	16.5646	974.979	1.8922	-1.2236	-0.4894
-9.7474	16.0264	975.577	1.9534	-1.1886	-0.4588
-16.2656	19.3752	977.072	1.9578	-1.2105	-0.4239
-14.7706	13.9334	973.723	1.8529	-1.1755	-0.4195
-15.9666	20.5712	977.491	1.9315	-1.1712	-0.4326
-14.95	12.0198	974.8	1.8922	-1.2192	-0.4283
-12.7972	21.2888	978.388	1.8966	-1.1668	-0.4151
-15.548	11.4816	970.494	1.8354	-1.1581	-0.4151
-10.5248	20.8104	981.737	1.9534	-1.2236	-0.4064
-17.5214	11.7208	970.195	1.8354	-1.1537	-0.4195
-12.0198	21.6476	982.394	1.984	-1.2017	-0.4501
-20.033	12.3786	968.521	1.8354	-1.1493	-0.4326
-8.4318	21.1094	982.634	1.9927	-1.2411	-0.4414
-19.0762	14.2922	969.836	1.8441	-1.2061	-0.4588
-9.867	17.8802	980.421	1.9752	-1.1493	-0.437
-19.6742	13.2158	971.032	1.8747	-1.1843	-0.472
-10.166	16.8038	979.404	1.984	-1.1843	-0.4588
-18.5978	15.9068	972.707	1.866	-1.1886	-0.4632
-12.3786	15.9666	975.278	1.9184	-1.2323	-0.472
-17.342	18.7772	974.022	1.9709	-1.2454	-0.4894
-13.0364	14.5314	976.893	1.9578	-1.2061	-0.4588
-16.3254	20.2722	978.268	1.9097	-1.228	-0.4239
-15.6078	12.1394	972.647	1.8835	-1.1537	-0.4283
-11.4816	20.5712	980.541	1.9446	-1.2192	-0.4807
-14.1128	13.8138	972.288	1.8223	-1.1799	-0.4326
-11.5414	23.5612	981.139	1.9009	-1.2498	-0.4457
-18.4782	12.4982	969.896	1.8135	-1.1755	-0.4676
-11.4816	20.93	981.677	1.9359	-1.1886	-0.4851
-18.7772	12.1992	968.939	1.8704	-1.1624	-0.4326
-9.0298	20.332	981.318	1.9665	-1.2105	-0.4239
-18.837	11.6012	969.179	1.8529	-1.2061	-0.3889
-9.0298	18.7772	982.634	1.984	-1.2629	-0.4414
-20.93	13.0962	970.195	1.8223	-1.2017	-0.4545
-11.0032	17.043	979.584	1.9446	-1.1668	-0.437
-19.6144	16.6244	971.63	1.8747	-1.2105	-0.472
-9.2092	15.7274	978.268	1.9184	-1.2017	-0.4982
-17.2822	18.8968	975.039	1.8616	-1.2673	-0.4195
-13.5148	13.8736	974.022	1.949	-1.1843	-0.4283
-15.7274	18.8968	979.285	1.9359	-1.228	-0.4326
-13.455	12.9766	973.723	1.8441	-1.1581	-0.437
-15.0098	21.4084	979.165	1.9097	-1.1886	-0.4414
-17.1028	13.0364	972.527	1.8704	-1.2192	-0.4414
-13.156	22.1858	979.763	1.9184	-1.2367	-0.4414
-17.7606	13.3354	971.63	1.8223	-1.11	-0.4414
-11.2424	21.5878	981.198	1.9578	-1.1449	-0.4326
-18.239	10.0464	969.298	1.8441	-1.1406	-0.4501
-9.1494	21.1692	982.514	1.9578	-1.2236	-0.3802
-17.8802	11.96	967.564	1.8223	-1.2017	-0.4283
-8.97	19.3154	981.677	1.984	-1.2149	-0.4064
-20.5114	13.5746	968.521	1.8878	-1.1406	-0.4283
-8.3122	16.8038	981.258	2.0102	-1.1493	-0.4414
-19.136	14.1726	972.288	1.8747	-1.1231	-0.4283
-10.2258	14.8902	976.474	1.9403	-1.1318	-0.4545
-16.445	15.7872	975.517	1.9141	-1.1886	-0.4151
-10.2258	14.2922	977.909	1.9141	-1.228	-0.4108
-16.9234	19.0762	976.893	1.9446	-1.2192	-0.437
-15.1294	13.9334	975.338	1.9272	-1.11	-0.4239
-14.4118	20.6908	977.85	1.9796	-1.1843	-0.4457
-14.7706	14.651	973.544	1.8922	-1.1668	-0.4545
-12.6178	22.5446	978.687	1.984	-1.1843	-0.4064
-17.4616	11.7806	969.717	1.866	-1.1493	-0.4283
-12.259	21.5878	982.574	1.9752	-1.2061	-0.4414
-18.8968	12.3188	969.478	1.8223	-1.1362	-0.4108
-10.5846	21.8868	981.976	1.9621	-1.2149	-0.437
-20.2722	13.6942	968.521	1.8267	-1.2323	-0.4501
-9.4484	20.8104	982.514	1.9621	-1.2498	-0.4414
-21.528	14.7706	972.228	1.8092	-1.2017	-0.3889
-11.661	17.94	980.361	1.9141	-1.1843	-0.4283
-19.2556	14.651	972.767	1.8485	-1.1974	-0.4239
-8.6112	17.1028	977.67	1.8616	-1.1886	-0.437
-18.0596	17.8204	973.903	1.8791	-1.2454	-0.4195
-12.1394	15.1294	977.252	1.9184	-1.2192	-0.4064
-17.8204	17.94	974.501	1.8747	-1.2017	-0.4326
-12.6178	12.4982	975.816	1.8616	-1.1668	-0.4501
-13.6344	19.2556	976.115	1.8791	-1.2017	-0.4151
-13.2756	10.6444	971.69	1.8529	-1.1581	-0.4326
-12.4384	20.7506	980.182	1.949	-1.1624	-0.3977
-15.4882	10.764	972.049	1.8878	-1.1537	-0.4588
-11.8404	20.7506	981.557	1.984	-1.1974	-0.4676
-19.1958	11.9002	969.119	1.8966	-1.1143	-0.4239
-8.97	21.4682	983.052	2.0364	-1.2105	-0.4283
-18.7174	12.3786	970.315	1.8529	-1.1755	-0.4108
-10.5846	20.93	981.438	1.9796	-1.1449	-0.4632
-21.229	12.558	971.212	1.9228	-1.1449	-0.472
-9.9268	18.837	982.335	1.984	-1.1755	-0.4414
-21.2888	15.4284	969.657	1.866	-1.2192	-0.4326
-10.3454	17.7008	980.062	1.9534	-1.2323	-0.4239
-19.3154	17.8204	971.391	1.9009	-1.2367	-0.4414
-10.5846	15.6078	979.046	1.9578	-1.2149	-0.437
-18.7772	18.0596	974.561	1.9009	-1.1624	-0.4151
-13.3354	13.6344	974.8	1.8878	-1.1406	-0.4151
-14.7706	20.3918	977.311	1.9578	-1.2017	-0.3715
-12.0198	13.5148	974.082	1.8791	-1.1712	-0.4283
-13.9334	20.8104	980.182	1.9272	-1.2498	-0.402
-17.2224	12.1992	970.913	1.8223	-1.193	-0.4151
-12.3786	20.4516	981.139	1.9446	-1.193	-0.4588
-16.5646	10.2258	970.674	1.8485	-1.1886	-0.4457
-11.0032	21.6476	980.481	1.9578	-1.2236	-0.437
-17.2822	10.2258	969.896	1.9097	-1.1712	-0.4283
-9.568	20.033	982.992	1.9446	-1.2105	-0.437
-19.9134	12.1992	968.7	1.8092	-1.1755	-0.4064
-9.269	19.2556	982.693	1.9534	-1.2017	-0.402
-20.2124	14.8304	969.059	1.8441	-1.1668	-0.472
-8.7308	19.1958	981.856	1.9621	-1.2236	-0.4807
-19.3752	16.8636	973.245	1.8747	-1.1755	-0.4457
-10.5248	15.3686	978.687	1.9228	-1.1449	-0.4457
-18.538	16.8038	976.355	1.949	-1.2105	-0.4283
-10.166	14.4118	977.79	1.9141	-1.1493	-0.4894
-17.043	17.5812	974.86	1.8267	-1.2105	-0.4326
-15.249	13.8736	972.886	1.8616	-1.2061	-0.437
-16.5646	20.3918	975.338	1.9446	-1.2323	-0.437
-16.445	12.3188	971.69	1.8922	-1.1799	-0.4588
-15.3088	22.0064	979.524	1.9709	-1.1843	-0.4501
-17.5214	9.867	970.434	1.9141	-1.1318	-0.437
-10.8238	21.6476	983.77	2.0233	-1.2411	-0.4807
-15.249	11.4816	971.69	1.8529	-1.1886	-0.4545
-9.4484	21.827	985.325	1.9883	-1.1886	-0.4588
-19.3752	13.0364	968.521	1.8135	-1.2192	-0.3933
-8.9102	20.033	982.634	1.9665	-1.2717	-0.4414
-18.7174	14.8304	969.956	1.8616	-1.2192	-0.4108
-8.2524	17.8802	978.448	1.9184	-1.1581	-0.4326
-19.136	13.9932	971.87	1.9228	-1.2149	-0.4414
-9.2092	14.8902	979.584	1.9446	-1.1581	-0.4807
-19.136	14.2324	972.767	1.8878	-1.1712	-0.4501
-12.7374	14.352	977.252	1.9184	-1.1624	-0.4283
-17.2224	17.342	974.441	1.9053	-1.1275	-0.4239
-12.259	13.754	975.577	1.949	-1.1362	-0.4239
-16.5048	21.827	976.713	1.9534	-1.1886	-0.402
-16.0264	12.7972	973.066	1.9053	-1.1712	-0.4239
-14.053	21.3486	982.036	1.9534	-1.2192	-0.3977
-16.3254	11.8404	970.375	1.8398	-1.1275	-0.437
-13.3354	22.4848	981.796	1.9709	-1.1624	-0.4676
-18.3586	11.7208	969.537	1.8572	-1.1668	-0.472
-10.9434	22.2456	981.856	1.9752	-1.228	-0.4545
-19.0164	12.857	970.434	1.9097	-1.1886	-0.4108
-10.5846	19.5546	980.541	1.949	-1.1581	-0.4457
-19.8536	12.558	970.674	1.8354	-1.1537	-0.4545
-7.5946	19.2556	981.557	1.9315	-1.228	-0.4807
-18.5978	15.249	969.597	1.7873	-1.1755	-0.4108
-9.9866	18.1194	981.019	1.8529	-1.2586	-0.3933
-20.4516	15.7872	971.87	1.8704	-1.1668	-0.4283
-11.362	15.847	979.763	1.9141	-1.2192	-0.4545
-19.1958	18.1792	973.305	1.9009	-1.2149	-0.4632
-12.4982	13.754	975.278	1.9534	-1.2061	-0.4239
-15.0696	18.4782	978.806	1.8966	-1.2017	-0.4108
-15.0696	12.4384	973.365	1.8529	-1.2149	-0.4414
-14.1726	19.3752	979.464	1.9272	-1.2717	-0.4239
-15.0696	19.3752	970.494	1.831	-1.2061	-0.402
-16.5048	10.2856	978.388	1.9534	-1.228	-0.4501
-12.4982	21.5878	970.793	1.8966	-1.1755	-0.4457
-16.2656	10.9434	979.883	2.0058	-1.1843	-0.3846
-10.4052	21.7074	979.883	1.8791	-1.1974	-0.4195
-18.538	11.1228	970.375	2.0408	-1.193	-0.4108
-10.3454	20.332	983.471	1.8878	-1.2149	-0.4457
-19.2556	13.6344	971.152	1.949	-1.228	-0.4414
-9.9268	21.3486	982.095	1.8572	-1.1843	-0.4457
-20.8104	16.0862	970.135	1.9359	-1.1799	-0.4414
-8.671	19.1958	981.737	1.831	-1.1755	-0.4763
-20.9898	16.445	971.989	1.9141	-1.1886	-0.4632
-11.8404	15.6078	977.969	1.8966	-1.2498	-0.4501
-18.538	15.9666	974.74	1.9141	-1.2105	-0.437
-10.7042	15.6676	975.816	1.9534	-1.2236	-0.5069
-16.5048	17.9998	976.414	1.8835	-1.2105	-0.4807
-13.8138	12.259	973.484	1.8966	-1.2236	-0.4108
-14.95	19.435	978.089	1.9009	-1.1581	-0.4501
-14.8304	10.9434	972.647	1.984	-1.2236	-0.4501
-12.558	21.2888	979.225	1.8922	-1.2105	-0.4763
-15.7872	10.8836	970.554	1.8922	-1.2192	-0.472
-11.0032	22.1858	982.813	1.9621	-1.2149	-0.4501
-17.8204	11.2424	970.733	1.8441	-1.2629	-0.4283
-12.1992	21.229	982.095	1.9403	-1.2629	-0.4239
-20.332	12.857	969.358	1.8354	-1.2149	-0.472
-8.6112	20.5712	982.036	1.9971	-1.2017	-0.4501
-19.9732	15.1294	970.674	1.8616	-1.2017	-0.437
-10.7042	18.4782	980.899	1.984	-1.1712	-0.4414
-20.1526	13.6942	971.81	1.9315	-1.2367	-0.472
-10.1062	17.043	979.644	1.9053	-1.1668	-0.4239
-18.0596	16.6842	971.989	1.8441	-1.1406	-0.4239
-10.8836	15.6676	976.534	1.9009	-1.1799	-0.3977
-17.342	18.5978	974.561	1.8922	-1.228	-0.437
-12.259	13.5148	976.474	1.9315	-1.1712	-0.4676
-15.548	19.4948	977.67	1.9009	-1.2017	-0.4851
-15.6078	11.4816	971.69	1.8354	-1.193	-0.437
-12.6776	21.528	980.959	1.9578	-1.2411	-0.4108
-14.2922	11.6012	971.451	1.7873	-1.193	-0.3933
-12.9168	22.0064	980.062	1.9315	-1.2411	-0.402
-18.2988	11.7208	970.494	1.8267	-1.2411	-0.4283
-10.8238	20.2124	981.258	1.9403	-1.228	-0.472
-18.6576	12.7972	970.614	1.8572	-1.1755	-0.4501
-8.97	20.2124	979.644	1.9796	-1.1843	-0.4632
-18.3586	12.6178	969.537	1.9009	-1.1406	-0.4763
-8.5514	19.4948	982.514	1.9534	-1.2105	-0.4414
-20.5114	15.0098	970.913	1.8529	-1.1624	-0.4239
-10.764	17.1626	980.78	1.9446	-1.1799	-0.402
-20.9898	16.0862	970.135	1.7917	-1.1712	-0.4064
-9.568	16.9832	978.567	1.984	-1.1886	-0.437
-17.7606	18.3586	974.8	1.9359	-1.1886	-0.4283
-13.156	13.6344	974.142	1.9228	-1.1843	-0.4326
-16.3254	18.7174	978.866	1.9971	-1.2061	-0.4588
-13.6344	12.3188	973.305	1.8922	-1.1624	-0.4632
-14.4118	22.6642	980.002	1.9097	-1.2411	-0.4501
-15.548	12.4982	971.152	1.8966	-1.228	-0.4545
-12.259	21.528	978.926	1.9665	-1.1886	-0.4414
-16.8038	11.5414	973.185	1.8747	-1.228	-0.3977
-11.9002	21.1692	980.361	1.9097	-1.1712	-0.4283
-17.7606	10.0464	970.315	1.8179	-1.1406	-0.4545
-8.6112	20.2124	981.856	1.9665	-1.2017	-0.4457
-17.9998	12.9766	969.179	1.8398	-1.1712	-0.4632
-9.6876	19.3154	982.514	1.9446	-1.1318	-0.4501
-21.827	13.3952	967.983	1.831	-1.1362	-0.4457
-9.8072	17.8204	982.036	2.0102	-1.1886	-0.4545
-19.5546	14.8304	970.733	1.8485	-1.2149	-0.4545
-10.2856	16.8636	977.252	1.9272	-1.2061	-0.4763
-17.7606	17.1028	975.458	1.9752	-1.1712	-0.4545
-11.96	14.95	976.355	1.9272	-1.1668	-0.4457
-17.342	19.3154	976.953	1.8878	-1.2542	-0.4326
-14.352	13.6344	973.484	1.8704	-1.2017	-0.4414
-14.4118	21.229	978.149	1.9097	-1.2149	-0.4414
-13.9932	13.0364	973.305	1.8398	-1.2061	-0.437
-13.2756	22.0662	979.046	1.9665	-1.1624	-0.4588
-16.6842	10.4052	972.527	1.8704	-1.1668	-0.4588
-10.9434	20.8104	981.677	1.9796	-1.2061	-0.3758
-17.4616	11.661	969.896	1.8529	-1.1362	-0.4239
-10.5248	21.1692	981.557	1.9534	-1.1974	-0.4108
-20.5114	13.3952	967.504	1.8398	-1.1449	-0.3933
-9.4484	20.5114	982.933	1.9578	-1.193	-0.3977
-20.4516	13.455	969.777	1.8398	-1.2017	-0.4326
