A_X [mg] 	 A_Y [mg] 	 A_Z [mg] 	G_X [dps] 	 G_Y [dps] 	 G_Z [dps] 	
-203.984 	 976.976 	 -98.088 	1.05 	 0.7 	 -5.67 	
-205.936 	 979.416 	 -110.288 	1.61 	 0.91 	 -4.06 	
-193.248 	 978.44 	 -110.288 	1.82 	 0.63 	 -2.24 	
-138.592 	 973.072 	 -106.384 	3.01 	 3.15 	 9.38 	
-111.264 	 985.76 	 -127.856 	7 	 8.68 	 39.48 	
-80.52 	 982.344 	 -138.592 	15.54 	 17.85 	 81.41 	
-123.952 	 1000.89 	 -129.808 	16.52 	 23.24 	 85.75 	
-50.264 	 1022.36 	 -140.056 	9.1 	 23.38 	 49.14 	
-104.432 	 1023.82 	 -132.248 	-6.16 	 21.91 	 -17.08 	
-60.024 	 983.808 	 -119.56 	-11.9 	 14.98 	 -70.28 	
-148.84 	 954.528 	 -110.776 	-19.88 	 9.66 	 -127.96 	
-81.984 	 978.44 	 -88.816 	-24.85 	 6.37 	 -136.22 	
-88.328 	 1075.06 	 -122.488 	-12.18 	 14.7 	 -43.61 	
-443.592 	 943.304 	 -101.504 	4.06 	 20.09 	 59.01 	
-296.216 	 1029.19 	 -75.64 	9.38 	 16.8 	 103.32 	
-264.008 	 982.344 	 -64.904 	3.71 	 10.36 	 76.02 	
-83.936 	 921.344 	 -88.328 	-10.64 	 1.61 	 0.98 	
-37.576 	 952.576 	 -84.424 	-16.73 	 -6.86 	 -70.35 	
10.736 	 967.216 	 -91.256 	-21.98 	 -4.76 	 -101.64 	
54.656 	 1039.93 	 -117.608 	-11.62 	 18.41 	 -43.61 	
-344.528 	 1020.41 	 -97.6 	6.58 	 38.64 	 56.21 	
-238.632 	 1065.3 	 -111.752 	12.04 	 46.69 	 116.48 	
-317.2 	 1000.4 	 -88.816 	5.11 	 40.67 	 92.12 	
-101.016 	 1022.36 	 -87.352 	-10.43 	 21.84 	 16.17 	
-55.632 	 885.232 	 -59.048 	-22.33 	 8.12 	 -55.09 	
-38.064 	 888.648 	 -59.536 	-27.86 	 -2.45 	 -121.8 	
20.008 	 929.152 	 -42.944 	-24.22 	 2.1 	 -136.36 	
-195.2 	 1040.9 	 -39.528 	-8.33 	 19.53 	 -66.71 	
-421.144 	 983.808 	 -71.248 	6.51 	 30.17 	 6.58 	
-305.976 	 1038.46 	 -85.4 	12.6 	 34.79 	 45.15 	
-244.488 	 1020.9 	 -87.84 	9.31 	 39.41 	 61.88 	
-197.64 	 988.2 	 -77.592 	2.59 	 47.81 	 62.93 	
-170.312 	 937.448 	 -80.52 	-3.29 	 50.89 	 47.88 	
-227.408 	 926.712 	 -46.36 	-3.57 	 44.8 	 19.25 	
-141.52 	 950.624 	 -67.344 	-1.89 	 33.81 	 -5.81 	
-176.168 	 969.656 	 -69.296 	0.91 	 21.21 	 -17.08 	
-137.128 	 997.96 	 -79.544 	2.66 	 11.27 	 -16.24 	
-166.408 	 995.032 	 -85.4 	2.66 	 5.88 	 -11.9 	
-147.376 	 982.832 	 -85.4 	2.59 	 1.96 	 -8.54 	
-154.696 	 987.712 	 -83.448 	2.94 	 2.59 	 -4.69 	
-160.064 	 1013.09 	 -83.448 	2.73 	 2.87 	 3.08 	
-141.52 	 1005.77 	 -101.016 	1.68 	 6.37 	 23.38 	
-167.872 	 1052.62 	 -101.504 	2.8 	 8.61 	 59.99 	
-95.648 	 1026.26 	 -111.752 	1.54 	 12.95 	 84.77 	
-51.728 	 995.52 	 -113.704 	-0.84 	 16.52 	 84.42 	
20.496 	 974.048 	 -105.408 	-5.25 	 15.26 	 51.59 	
57.584 	 981.856 	 -103.456 	-12.95 	 13.93 	 1.12 	
3.416 	 932.568 	 -72.224 	-17.43 	 4.97 	 -58.59 	
-24.888 	 909.632 	 -50.264 	-15.47 	 -12.46 	 -121.52 	
93.208 	 952.088 	 -37.088 	-12.18 	 -19.04 	 -149.17 	
103.456 	 1086.78 	 -59.048 	1.82 	 3.08 	 -63.28 	
-493.856 	 1013.58 	 -70.272 	12.39 	 17.36 	 48.37 	
-194.224 	 1144.36 	 -82.96 	21.56 	 14.84 	 124.53 	
-186.904 	 1074.09 	 -115.656 	8.19 	 14.35 	 119.91 	
-50.264 	 1027.24 	 -95.648 	-9.94 	 4.62 	 50.89 	
47.336 	 907.192 	 -57.096 	-26.6 	 -8.47 	 -27.65 	
-81.008 	 904.752 	 -0.976 	-30.87 	 -23.17 	 -91.84 	
-20.496 	 917.928 	 6.832 	-25.55 	 -36.26 	 -135.1 	
-103.456 	 942.816 	 29.28 	-16.17 	 -42.42 	 -132.79 	
-284.504 	 1070.67 	 39.528 	-0.14 	 -38.36 	 -55.3 	
-435.296 	 909.144 	 -1.952 	15.4 	 -39.2 	 4.83 	
-368.928 	 1028.7 	 -8.296 	24.99 	 -39.2 	 55.3 	
-430.416 	 982.344 	 -4.392 	24.85 	 -50.54 	 90.58 	
-342.088 	 932.08 	 -2.928 	22.05 	 -73.92 	 92.12 	
-141.032 	 906.216 	 -29.28 	19.04 	 -92.82 	 73.78 	
-54.656 	 907.68 	 -46.36 	22.05 	 -100.38 	 51.03 	
86.864 	 967.704 	 -84.424 	22.68 	 -95.9 	 23.8 	
69.784 	 982.344 	 -106.384 	19.18 	 -81.62 	 -5.74 	
65.392 	 967.704 	 -125.416 	19.18 	 -67.69 	 -26.18 	
78.568 	 996.496 	 -132.248 	22.05 	 -52.92 	 -24.01 	
-14.64 	 970.632 	 -135.176 	24.15 	 -39.55 	 -12.04 	
-51.728 	 1004.79 	 -140.544 	23.8 	 -29.47 	 -8.33 	
-65.392 	 1012.11 	 -141.52 	21.42 	 -22.05 	 -3.85 	
-73.2 	 1029.19 	 -186.416 	18.2 	 -16.03 	 2.94 	
-67.832 	 1004.3 	 -194.224 	13.3 	 -8.54 	 11.62 	
-59.048 	 985.272 	 -194.712 	10.92 	 -3.57 	 23.59 	
-7.808 	 995.032 	 -220.088 	11.69 	 -0.56 	 45.99 	
-12.688 	 1006.26 	 -210.816 	14.14 	 5.95 	 81.55 	
-14.64 	 990.152 	 -207.4 	13.51 	 8.75 	 98.42 	
17.568 	 1000.89 	 -195.688 	7.07 	 6.51 	 72.17 	
65.392 	 1003.33 	 -180.072 	-3.71 	 0.35 	 3.15 	
180.072 	 914.512 	 -183.976 	-15.4 	 -3.08 	 -72.17 	
162.504 	 933.056 	 -166.896 	-24.01 	 -5.53 	 -145.53 	
130.296 	 878.888 	 -165.92 	-21.14 	 0.63 	 -163.45 	
-73.688 	 1033.1 	 -176.168 	-7.14 	 10.92 	 -78.75 	
-401.136 	 1019.43 	 -170.8 	11.41 	 14.07 	 26.74 	
-164.944 	 1084.34 	 -171.776 	21.77 	 11.2 	 99.61 	
-237.656 	 1045.78 	 -174.704 	18.06 	 8.61 	 128.87 	
-40.992 	 989.664 	 -170.8 	8.68 	 1.75 	 101.01 	
28.792 	 923.784 	 -128.344 	-0.63 	 -4.76 	 22.75 	
223.992 	 854.976 	 -163.48 	-8.19 	 -6.51 	 -64.4 	
97.6 	 894.016 	 -149.328 	-13.23 	 -6.65 	 -138.32 	
104.92 	 952.576 	 -182.512 	-10.29 	 -1.75 	 -161.56 	
-123.464 	 997.472 	 -207.4 	-9.31 	 5.39 	 -129.01 	
-402.112 	 967.704 	 -203.984 	-1.05 	 10.29 	 -48.79 	
-458.232 	 984.296 	 -183.976 	7.63 	 6.37 	 16.31 	
-360.632 	 1020.9 	 -180.56 	11.97 	 6.3 	 63.42 	
-281.088 	 965.752 	 -185.44 	11.48 	 5.74 	 87.22 	
-238.632 	 951.6 	 -177.632 	8.4 	 5.25 	 89.18 	
-107.848 	 924.76 	 -184.952 	4.76 	 1.33 	 70.91 	
-70.76 	 918.904 	 -182.512 	2.59 	 -2.38 	 42.91 	
6.344 	 935.984 	 -195.2 	0.35 	 -7.14 	 9.73 	
22.936 	 950.624 	 -215.696 	-2.73 	 -10.64 	 -18.48 	
44.896 	 976.488 	 -213.744 	-4.06 	 -10.71 	 -33.46 	
7.32 	 974.536 	 -215.208 	-3.99 	 -9.17 	 -25.83 	
-74.664 	 972.096 	 -199.104 	-1.96 	 -8.19 	 -12.53 	
-108.336 	 976.488 	 -202.032 	-2.31 	 -6.23 	 -3.22 	
-107.848 	 987.224 	 -197.64 	-0.56 	 -5.32 	 3.78 	
-77.104 	 986.736 	 -193.248 	0.07 	 -2.94 	 7.42 	
-72.712 	 975.512 	 -189.832 	0.35 	 -1.33 	 10.5 	
-72.712 	 971.12 	 -185.928 	0.98 	 -2.94 	 15.05 	
-116.632 	 972.096 	 -179.096 	1.12 	 -11.69 	 24.92 	
-96.136 	 982.832 	 -182.512 	3.01 	 -29.75 	 58.31 	
-63.928 	 998.448 	 -167.872 	4.62 	 -44.94 	 93.38 	
-54.656 	 959.896 	 -177.632 	2.38 	 -54.67 	 99.05 	
117.12 	 992.104 	 -194.224 	-4.55 	 -60.76 	 63.07 	
208.376 	 948.184 	 -181.536 	-13.44 	 -54.67 	 7.14 	
227.408 	 978.928 	 -198.616 	-24.29 	 -40.6 	 -57.19 	
111.752 	 966.24 	 -178.12 	-32.9 	 -38.92 	 -121.66 	
217.648 	 840.824 	 -180.56 	-29.82 	 -36.33 	 -140 	
-102.48 	 901.824 	 -155.672 	3.99 	 -9.52 	 -20.02 	
-194.224 	 1077.99 	 -161.528 	27.72 	 -5.04 	 68.74 	
-200.08 	 1054.08 	 -157.136 	27.51 	 -6.93 	 102.62 	
59.048 	 1004.3 	 -195.688 	14.56 	 -8.19 	 63.21 	
171.776 	 934.52 	 -175.192 	-2.94 	 -7.98 	 -19.95 	
117.608 	 919.88 	 -178.12 	-13.23 	 -1.05 	 -87.78 	
-12.2 	 868.64 	 -187.392 	-15.19 	 -10.08 	 -119.98 	
-114.68 	 925.248 	 -204.472 	1.96 	 -9.94 	 -28.28 	
-131.76 	 1093.12 	 -213.744 	20.58 	 -4.97 	 80.08 	
-251.808 	 1062.38 	 -184.464 	19.53 	 1.54 	 92.26 	
85.4 	 1038.95 	 -167.384 	6.51 	 2.1 	 17.43 	
81.496 	 875.96 	 -174.704 	-9.03 	 3.29 	 -58.73 	
-20.496 	 898.408 	 -162.016 	-19.32 	 -2.59 	 -119 	
-63.44 	 886.208 	 -205.936 	-26.81 	 -8.75 	 -153.58 	
-93.208 	 949.648 	 -227.896 	-28 	 -9.1 	 -148.82 	
-325.008 	 940.376 	 -205.936 	-32.34 	 2.66 	 -116.69 	
-528.504 	 940.864 	 -142.496 	-28.7 	 6.23 	 -81.41 	
-565.104 	 904.752 	 -99.552 	-24.85 	 7.28 	 -48.58 	
-578.768 	 838.384 	 -69.296 	-17.71 	 11.27 	 -17.64 	
-601.216 	 851.072 	 -57.096 	-4.62 	 13.58 	 22.89 	
-540.216 	 903.776 	 -71.248 	5.74 	 17.36 	 62.93 	
-454.816 	 888.648 	 -95.648 	12.04 	 27.02 	 91.28 	
-394.792 	 932.08 	 -101.016 	15.89 	 36.4 	 108.22 	
-302.56 	 936.472 	 -116.632 	16.94 	 42 	 107.87 	
-231.312 	 949.16 	 -130.784 	15.33 	 43.47 	 93.59 	
-152.744 	 926.224 	 -144.448 	10.43 	 40.39 	 60.13 	
-103.944 	 917.44 	 -149.816 	5.11 	 35.42 	 19.6 	
-35.624 	 928.176 	 -182.512 	1.4 	 30.24 	 -15.19 	
-30.744 	 972.096 	 -192.272 	-0.7 	 27.51 	 -29.33 	
-124.928 	 984.296 	 -203.496 	-1.89 	 24.92 	 -18.62 	
-135.176 	 1031.14 	 -207.888 	-1.68 	 17.99 	 -4.9 	
-131.76 	 1000.89 	 -196.664 	-2.87 	 13.93 	 7 	
-98.576 	 995.032 	 -192.76 	-0.91 	 12.11 	 19.39 	
-39.04 	 978.928 	 -191.296 	2.45 	 12.39 	 36.4 	
21.472 	 966.24 	 -186.904 	8.12 	 15.05 	 62.09 	
-12.2 	 996.008 	 -175.192 	10.99 	 18.27 	 77.14 	
19.52 	 989.176 	 -186.904 	5.18 	 16.31 	 53.83 	
65.392 	 1007.23 	 -168.848 	-4.48 	 8.89 	 6.58 	
85.4 	 934.52 	 -168.36 	-15.61 	 2.52 	 -52.01 	
133.224 	 931.592 	 -166.896 	-20.16 	 -2.8 	 -97.3 	
194.224 	 959.408 	 -163.968 	-11.27 	 2.03 	 -59.43 	
-137.128 	 1025.29 	 -171.776 	4.55 	 14.98 	 33.18 	
-86.864 	 1049.2 	 -190.32 	10.78 	 21.49 	 80.85 	
-212.28 	 1065.79 	 -159.576 	3.15 	 18.34 	 50.61 	
54.168 	 989.176 	 -156.16 	-11.55 	 6.44 	 -16.87 	
7.32 	 950.624 	 -124.44 	-17.57 	 -1.96 	 -73.01 	
134.688 	 896.456 	 -139.08 	-18.2 	 -7.21 	 -116.97 	
80.032 	 1000.4 	 -160.064 	-5.67 	 4.2 	 -46.48 	
-245.464 	 1009.67 	 -154.696 	10.36 	 12.6 	 44.59 	
-115.656 	 1057.5 	 -168.36 	18.62 	 16.31 	 90.65 	
-116.632 	 1075.06 	 -173.728 	11.48 	 17.57 	 87.71 	
-24.4 	 1017.97 	 -145.424 	-6.86 	 11.13 	 31.99 	
91.744 	 873.52 	 -127.856 	-23.87 	 0.14 	 -44.45 	
80.52 	 933.544 	 -112.728 	-33.04 	 -6.72 	 -115.71 	
85.4 	 922.32 	 -115.656 	-34.86 	 -5.04 	 -152.74 	
-106.872 	 988.688 	 -101.504 	-33.32 	 1.4 	 -139.86 	
-309.392 	 1009.18 	 -96.136 	-25.34 	 8.75 	 -59.29 	
-444.568 	 947.696 	 -61 	-13.3 	 9.03 	 3.5 	
-343.552 	 986.736 	 -45.384 	-3.43 	 12.04 	 48.37 	
-302.56 	 977.464 	 -40.504 	3.5 	 14.77 	 83.72 	
-198.128 	 944.28 	 -48.312 	6.44 	 16.24 	 98.28 	
-118.584 	 935.984 	 -36.6 	6.02 	 18.2 	 88.13 	
-75.64 	 920.856 	 -39.04 	4.55 	 16.38 	 53.13 	
36.112 	 963.312 	 -51.24 	2.03 	 10.64 	 12.11 	
82.96 	 968.68 	 -55.632 	0.91 	 8.61 	 -13.02 	
110.776 	 995.52 	 -66.368 	0.28 	 12.81 	 -16.94 	
5.368 	 996.984 	 -74.176 	3.22 	 16.94 	 -5.04 	
-73.2 	 996.496 	 -86.376 	5.46 	 17.29 	 0.28 	
-83.448 	 1001.86 	 -105.896 	5.18 	 15.82 	 -2.17 	
-65.88 	 1017.97 	 -98.088 	3.01 	 14.91 	 -2.87 	
-35.624 	 1009.18 	 -90.768 	0.35 	 16.17 	 0.07 	
-35.624 	 1002.84 	 -82.472 	-1.82 	 17.5 	 3.57 	
-36.112 	 994.544 	 -69.784 	-2.1 	 15.33 	 7.91 	
15.616 	 975.024 	 -68.32 	2.24 	 11.2 	 30.59 	
-2.44 	 1007.23 	 -69.296 	9.31 	 11.2 	 72.31 	
70.272 	 993.568 	 -80.52 	10.64 	 13.93 	 84.14 	
46.36 	 1008.21 	 -98.576 	5.18 	 19.18 	 48.79 	
82.96 	 980.392 	 -85.888 	-6.72 	 11.76 	 -23.59 	
42.456 	 991.616 	 -58.56 	-11.06 	 0.91 	 -84.21 	
246.44 	 881.816 	 -68.32 	-10.64 	 -8.89 	 -111.93 	
116.144 	 1027.73 	 -71.736 	2.38 	 9.1 	 1.19 	
-33.672 	 1049.69 	 -85.4 	24.08 	 20.09 	 94.64 	
-62.464 	 1088.73 	 -136.64 	16.31 	 34.37 	 84.42 	
20.984 	 1092.63 	 -125.904 	-5.32 	 22.61 	 6.23 	
154.208 	 954.04 	 -84.912 	-19.04 	 4.13 	 -57.19 	
170.8 	 891.576 	 -55.632 	-24.5 	 -3.78 	 -99.54 	
261.08 	 964.288 	 -33.184 	-9.17 	 3.71 	 -50.75 	
-178.608 	 1005.77 	 -45.384 	4.9 	 14.42 	 38.01 	
4.392 	 1058.47 	 -75.152 	17.29 	 15.75 	 91.63 	
28.792 	 1098.49 	 -108.336 	12.25 	 21.42 	 86.73 	
39.528 	 1048.22 	 -89.304 	-3.5 	 17.01 	 40.46 	
87.84 	 936.96 	 -59.048 	-22.12 	 -1.61 	 -23.87 	
35.624 	 937.936 	 -37.576 	-33.25 	 -21 	 -91 	
128.344 	 979.904 	 -18.056 	-35.98 	 -31.01 	 -140.28 	
28.792 	 993.568 	 11.224 	-35.91 	 -28.14 	 -139.3 	
7.808 	 1011.62 	 1.952 	-25.06 	 -14.28 	 -72.38 	
-258.64 	 978.44 	 53.68 	-8.26 	 0 	 2.03 	
-199.592 	 1000.4 	 39.528 	1.96 	 2.38 	 45.64 	
-122 	 999.912 	 37.088 	8.05 	 0.42 	 83.09 	
-20.008 	 994.056 	 40.504 	9.03 	 2.24 	 104.93 	
28.792 	 940.376 	 48.312 	8.4 	 4.06 	 101.64 	
73.2 	 990.64 	 49.288 	6.65 	 -0.28 	 63.98 	
159.088 	 964.288 	 27.328 	1.68 	 -5.11 	 13.44 	
237.656 	 958.432 	 20.008 	-0.14 	 -8.33 	 -18.83 	
184.464 	 939.888 	 26.352 	0.7 	 -6.51 	 -33.81 	
124.928 	 997.96 	 10.248 	6.44 	 -0.77 	 -21.07 	
55.144 	 1012.6 	 3.904 	9.8 	 -0.28 	 -3.43 	
79.544 	 1028.22 	 -12.688 	7.7 	 -1.4 	 3.71 	
60.024 	 1008.7 	 -4.392 	5.32 	 -2.73 	 6.09 	
64.904 	 980.88 	 -2.928 	3.99 	 -6.09 	 4.55 	
21.96 	 967.216 	 6.832 	7.21 	 -14.49 	 5.81 	
-31.72 	 954.04 	 0 	12.46 	 -32.34 	 9.45 	
-35.136 	 970.144 	 -20.496 	17.85 	 -56.56 	 20.58 	
91.256 	 996.984 	 -65.392 	20.86 	 -74.83 	 29.12 	
275.232 	 990.152 	 -115.168 	18.48 	 -64.12 	 29.68 	
244 	 1023.82 	 -124.928 	13.37 	 -39.62 	 22.05 	
200.568 	 997.96 	 -119.56 	5.67 	 -18.83 	 8.54 	
155.672 	 986.248 	 -103.944 	-0.63 	 -11.06 	 -18.48 	
79.056 	 991.128 	 -91.256 	-9.03 	 -10.78 	 -55.65 	
163.48 	 964.288 	 -109.8 	-12.39 	 -16.38 	 -90.79 	
159.576 	 946.232 	 -104.432 	-8.75 	 -16.73 	 -88.41 	
67.344 	 958.432 	 -102.968 	6.79 	 -3.99 	 2.66 	
-98.088 	 1085.31 	 -96.624 	15.12 	 1.05 	 67.06 	
-81.984 	 1010.16 	 -95.16 	11.34 	 1.19 	 73.99 	
49.288 	 1001.86 	 -105.408 	2.17 	 -8.96 	 30.87 	
154.208 	 954.528 	 -100.04 	-8.47 	 -15.82 	 -26.04 	
78.08 	 932.08 	 -69.296 	-13.65 	 -17.29 	 -77.14 	
148.352 	 957.456 	 -87.84 	-13.44 	 -17.78 	 -111.65 	
40.016 	 969.168 	 -90.28 	-6.86 	 -11.55 	 -97.51 	
-227.408 	 1009.67 	 -84.424 	1.19 	 -8.26 	 -40.04 	
-209.352 	 1037 	 -95.16 	6.93 	 -8.47 	 5.25 	
-194.712 	 1013.58 	 -84.912 	9.38 	 -6.72 	 36.54 	
-129.808 	 990.64 	 -89.304 	11.2 	 -6.16 	 55.09 	
-72.712 	 962.824 	 -105.896 	13.23 	 -7.63 	 61.18 	
11.224 	 1021.87 	 -99.064 	11.2 	 -8.26 	 57.33 	
23.424 	 981.856 	 -122.488 	6.58 	 -7.63 	 45.08 	
19.032 	 984.296 	 -105.896 	3.43 	 -11.76 	 26.39 	
38.064 	 988.688 	 -97.6 	-0.63 	 -15.19 	 6.09 	
40.504 	 958.92 	 -93.208 	-5.81 	 -13.79 	 -11.55 	
-4.88 	 953.552 	 -90.768 	-6.09 	 -10.08 	 -20.3 	
-52.704 	 966.728 	 -85.888 	-3.64 	 -8.05 	 -24.71 	
-83.448 	 984.784 	 -86.376 	-1.05 	 -7.35 	 -28 	
-105.896 	 983.808 	 -86.376 	1.05 	 -9.73 	 -37.52 	
-54.656 	 988.2 	 -115.168 	5.11 	 -14.21 	 -36.47 	
-133.224 	 967.704 	 -119.072 	12.04 	 -20.44 	 4.13 	
-90.768 	 983.808 	 -118.096 	21.7 	 -27.79 	 51.17 	
-86.864 	 1017.97 	 -117.608 	23.38 	 -35.98 	 72.52 	
-27.328 	 1003.33 	 -145.424 	18.13 	 -42 	 71.82 	
56.608 	 1001.86 	 -162.504 	11.2 	 -45.43 	 52.57 	
88.816 	 1034.56 	 -178.608 	-1.54 	 -39.97 	 1.68 	
204.96 	 1003.82 	 -196.664 	-15.54 	 -30.45 	 -70.07 	
12.688 	 924.76 	 -164.456 	-25.62 	 -23.03 	 -126.42 	
70.76 	 921.344 	 -210.328 	-18.13 	 -17.15 	 -99.82 	
-239.608 	 966.24 	 -159.576 	7.21 	 -10.15 	 23.8 	
-68.808 	 1028.22 	 -163.48 	21.42 	 -3.99 	 104.44 	
-77.104 	 1057.01 	 -140.544 	19.88 	 -4.97 	 105.63 	
175.192 	 1007.72 	 -144.936 	4.48 	 -3.71 	 21.42 	
273.768 	 990.152 	 -174.704 	-14.91 	 0.49 	 -67.97 	
103.944 	 841.312 	 -162.016 	-21.49 	 -5.6 	 -118.23 	
-128.832 	 959.408 	 -114.68 	0.14 	 -4.62 	 -13.72 	
-258.152 	 1021.38 	 -75.152 	23.1 	 6.51 	 107.31 	
-165.432 	 1043.83 	 -63.44 	26.6 	 7.63 	 141.89 	
104.92 	 1041.88 	 -111.264 	14.07 	 -2.52 	 46.76 	
338.672 	 945.256 	 -178.12 	1.33 	 -4.34 	 -58.24 	
142.984 	 945.744 	 -196.664 	-11.34 	 -8.05 	 -139.23 	
-54.656 	 919.392 	 -179.096 	-21.21 	 -11.41 	 -169.05 	
-371.368 	 1052.13 	 -157.136 	-6.72 	 -13.79 	 -68.6 	
-373.808 	 984.784 	 -156.648 	9.87 	 -15.4 	 36.12 	
-136.64 	 1006.26 	 -172.264 	17.92 	 -12.11 	 79.94 	
-40.016 	 983.32 	 -199.592 	15.19 	 -5.53 	 80.36 	
9.76 	 950.136 	 -204.472 	10.99 	 -4.97 	 65.59 	
18.056 	 956.968 	 -187.88 	3.15 	 -5.6 	 42.49 	
44.896 	 935.008 	 -196.664 	-4.9 	 -8.54 	 11.62 	
43.432 	 954.528 	 -191.296 	-8.47 	 -13.93 	 -13.44 	
32.208 	 984.784 	 -191.784 	-10.43 	 -18.83 	 -34.44 	
21.96 	 1006.74 	 -238.144 	-8.33 	 -24.08 	 -45.36 	
7.808 	 1043.83 	 -223.016 	-8.05 	 -27.86 	 -39.97 	
-68.32 	 975.024 	 -193.248 	-8.89 	 -29.33 	 -13.79 	
-65.88 	 976.976 	 -171.776 	-3.64 	 -32.76 	 15.89 	
-7.32 	 987.224 	 -180.56 	1.33 	 -30.94 	 38.01 	
29.768 	 969.168 	 -191.784 	5.81 	 -27.72 	 48.02 	
119.072 	 996.008 	 -204.96 	7.63 	 -25.27 	 49.77 	
101.504 	 984.784 	 -196.176 	4.34 	 -21.98 	 39.13 	
132.736 	 976.976 	 -209.84 	-1.82 	 -25.06 	 13.51 	
139.568 	 999.424 	 -218.624 	-9.31 	 -28.07 	 -15.96 	
129.32 	 999.912 	 -180.56 	-18.62 	 -29.4 	 -50.19 	
56.12 	 954.04 	 -133.224 	-32.27 	 -28.77 	 -107.24 	
170.8 	 937.936 	 -140.056 	-24.5 	 -27.79 	 -104.72 	
-204.472 	 923.784 	 -89.792 	4.62 	 -8.19 	 31.5 	
-289.872 	 987.712 	 -80.032 	14.42 	 1.26 	 133.28 	
-176.656 	 1000.4 	 -64.416 	7.84 	 -8.05 	 94.85 	
299.632 	 957.944 	 -150.304 	-6.72 	 -17.92 	 -10.15 	
112.24 	 983.808 	 -125.416 	-16.1 	 -18.9 	 -87.57 	
-26.84 	 1001.86 	 -97.6 	-24.36 	 -27.3 	 -153.3 	
10.736 	 982.832 	 -116.144 	-22.4 	 -30.1 	 -117.04 	
-502.152 	 1087.26 	 -17.08 	-1.89 	 -21.14 	 45.15 	
-293.288 	 957.944 	 -3.416 	11.34 	 -14 	 170.31 	
-89.792 	 999.912 	 -42.944 	5.32 	 -25.9 	 75.11 	
451.888 	 920.856 	 -135.176 	-3.85 	 -31.08 	 -67.76 	
-88.328 	 977.464 	 -60.024 	-16.66 	 -29.26 	 -164.64 	
-249.368 	 880.352 	 -44.408 	-22.68 	 -37.66 	 -178.29 	
-653.92 	 1158.02 	 76.128 	-4.48 	 -20.09 	 5.25 	
-384.056 	 1105.81 	 18.544 	20.23 	 -11.48 	 104.72 	
-256.2 	 1236.1 	 43.92 	25.41 	 1.89 	 120.4 	
-142.008 	 1300.03 	 41.968 	19.46 	 -2.52 	 74.97 	
-87.84 	 1221.95 	 49.776 	11.34 	 -16.1 	 18.69 	
-10.736 	 1194.14 	 70.76 	1.89 	 -19.67 	 -7.28 	
-88.816 	 1138.5 	 122 	-0.98 	 -16.24 	 -4.06 	
-119.56 	 1065.79 	 140.544 	1.26 	 -11.34 	 9.31 	
-113.704 	 1071.16 	 117.12 	11.2 	 -8.19 	 21.28 	
-89.792 	 1116.54 	 49.288 	15.68 	 -4.41 	 24.08 	
-130.296 	 1049.2 	 -24.888 	14.77 	 -3.5 	 21.07 	
-100.04 	 840.824 	 -138.592 	8.19 	 -2.66 	 5.46 	
-247.416 	 769.576 	 -242.048 	7.7 	 -7 	 -10.43 	
-208.376 	 788.12 	 -298.168 	6.16 	 -19.39 	 -15.4 	
-177.144 	 769.576 	 -321.104 	0.56 	 -25.69 	 -25.2 	
-111.264 	 750.056 	 -305.488 	-2.8 	 -28 	 -31.85 	
-141.52 	 840.336 	 -305.488 	-2.17 	 -27.02 	 -13.23 	
-97.6 	 923.784 	 -267.424 	-2.38 	 -28.07 	 23.59 	
-68.32 	 880.84 	 -234.24 	-3.92 	 -23.87 	 44.17 	
-13.664 	 854.488 	 -219.6 	-2.03 	 -21.42 	 54.88 	
38.064 	 850.096 	 -209.352 	1.26 	 -23.17 	 54.74 	
63.928 	 870.104 	 -194.712 	-3.85 	 -22.47 	 31.36 	
47.824 	 919.392 	 -177.144 	-16.66 	 -24.43 	 -20.16 	
65.392 	 851.072 	 -159.088 	-25.62 	 -26.32 	 -68.74 	
21.96 	 858.88 	 -119.072 	-24.29 	 -28.28 	 -93.38 	
25.864 	 934.52 	 -128.832 	-14.21 	 -24.08 	 -30.94 	
-171.288 	 925.248 	 -130.296 	3.99 	 -20.65 	 54.11 	
-28.304 	 1006.74 	 -138.592 	12.88 	 -16.66 	 99.19 	
39.528 	 1084.34 	 -164.944 	-0.35 	 -11.41 	 75.95 	
170.8 	 1201.46 	 -167.872 	-23.87 	 -10.08 	 4.69 	
166.408 	 1088.73 	 -61.976 	-46.06 	 -9.38 	 -65.8 	
70.272 	 1121.42 	 45.872 	-51.94 	 -13.3 	 -109.97 	
5.856 	 851.072 	 134.2 	-33.6 	 -17.92 	 -83.02 	
-391.376 	 885.72 	 219.112 	-6.72 	 -10.78 	 34.09 	
-87.84 	 952.576 	 150.304 	6.93 	 -9.73 	 105.49 	
-87.84 	 987.224 	 196.664 	4.97 	 -0.35 	 116.69 	
10.736 	 1097.51 	 221.552 	-6.23 	 -3.43 	 67.06 	
118.096 	 1051.64 	 204.472 	-16.59 	 -2.31 	 8.61 	
182.512 	 864.736 	 178.608 	-14 	 4.2 	 -35.63 	
82.96 	 820.816 	 160.552 	-6.3 	 12.95 	 -59.22 	
82.472 	 860.344 	 148.352 	-0.07 	 18.9 	 -64.61 	
87.84 	 903.776 	 154.696 	4.06 	 28.49 	 -52.99 	
90.28 	 968.192 	 150.792 	8.26 	 48.23 	 -24.01 	
55.144 	 943.792 	 143.96 	11.13 	 68.67 	 0.77 	
-13.664 	 943.304 	 143.472 	14.7 	 86.87 	 13.79 	
59.048 	 1029.68 	 115.656 	15.96 	 100.24 	 22.19 	
10.248 	 1062.38 	 77.592 	20.23 	 109.55 	 36.12 	
-87.84 	 1022.85 	 58.072 	24.5 	 105.21 	 37.31 	
-31.232 	 1161.44 	 32.696 	24.5 	 89.18 	 27.79 	
-11.224 	 1163.39 	 -45.384 	23.73 	 70.98 	 16.73 	
-36.6 	 1044.32 	 -125.904 	25.27 	 57.12 	 8.05 	
20.984 	 981.368 	 -193.736 	19.67 	 48.93 	 -6.23 	
77.592 	 859.856 	 -250.344 	9.87 	 46.62 	 -19.81 	
15.616 	 1032.12 	 -290.36 	-7.91 	 46.27 	 -41.37 	
23.424 	 1033.1 	 -309.88 	-26.88 	 40.39 	 -78.96 	
-86.376 	 1027.73 	 -247.904 	-39.76 	 31.57 	 -106.61 	
-165.432 	 951.112 	 -190.808 	-44.45 	 20.72 	 -102.9 	
-148.352 	 947.696 	 -157.624 	-27.93 	 28.35 	 0.49 	
-222.04 	 953.552 	 -145.424 	-4.62 	 39.55 	 132.51 	
-312.32 	 876.936 	 -129.32 	1.54 	 44.8 	 149.1 	
26.352 	 971.12 	 -132.736 	-5.74 	 28.49 	 34.23 	
226.92 	 879.376 	 -167.384 	-18.13 	 16.73 	 -46.9 	
67.832 	 914.512 	 -136.152 	-26.74 	 11.2 	 -109.69 	
8.784 	 872.056 	 -111.264 	-32.97 	 10.22 	 -144.41 	
-219.6 	 1233.66 	 -76.616 	-25.9 	 23.73 	 -49.56 	
-413.336 	 1136.55 	 5.368 	-15.47 	 28.98 	 68.32 	
-114.192 	 1159.98 	 60.512 	-3.29 	 44.52 	 144.34 	
-212.28 	 1122.89 	 153.72 	-4.62 	 55.58 	 146.3 	
-147.376 	 1109.22 	 213.256 	-19.6 	 42.14 	 64.19 	
63.928 	 741.272 	 241.072 	-26.95 	 21.63 	 -18.9 	
33.672 	 908.168 	 282.064 	-29.33 	 11.2 	 -78.19 	
62.464 	 884.744 	 292.8 	-30.1 	 9.52 	 -124.53 	
-65.392 	 748.104 	 303.536 	-10.99 	 22.75 	 -108.43 	
-645.136 	 913.536 	 302.56 	16.94 	 37.87 	 -0.56 	
-289.872 	 893.528 	 183.976 	41.58 	 39.69 	 70.42 	
-142.008 	 935.008 	 104.432 	48.79 	 45.64 	 97.09 	
14.64 	 984.296 	 69.296 	36.54 	 51.31 	 73.57 	
97.112 	 900.36 	 66.856 	18.62 	 49.63 	 23.24 	
60.024 	 901.824 	 106.872 	8.19 	 44.17 	 -22.19 	
62.464 	 874.984 	 102.48 	4.06 	 39.34 	 -44.52 	
42.944 	 943.304 	 107.848 	6.37 	 42.35 	 -40.11 	
-56.12 	 1056.03 	 101.504 	12.81 	 49.84 	 -5.25 	
-103.456 	 1050.18 	 74.176 	15.75 	 50.82 	 18.83 	
-133.224 	 1106.3 	 61 	19.95 	 49.63 	 30.73 	
-101.992 	 1056.03 	 -4.88 	19.25 	 47.25 	 32.62 	
-37.088 	 1205.85 	 -31.232 	17.78 	 40.95 	 31.92 	
-3.416 	 995.032 	 -92.72 	19.32 	 36.47 	 38.5 	
68.32 	 801.296 	 -155.672 	25.55 	 29.12 	 48.86 	
192.76 	 985.272 	 -252.296 	26.18 	 28.14 	 66.78 	
172.264 	 996.008 	 -284.992 	23.38 	 28.42 	 66.92 	
211.792 	 1086.29 	 -287.92 	9.03 	 26.95 	 38.71 	
155.184 	 1032.12 	 -230.824 	-15.12 	 22.68 	 -21.77 	
96.624 	 921.832 	 -158.112 	-32.41 	 12.6 	 -83.93 	
59.536 	 794.464 	 -143.472 	-39.2 	 -3.85 	 -132.86 	
69.296 	 817.888 	 -96.624 	-35 	 -13.37 	 -143.22 	
45.872 	 935.008 	 -98.088 	-15.82 	 0.28 	 -48.44 	
-289.384 	 831.552 	 -99.064 	3.29 	 10.01 	 48.09 	
-45.872 	 910.12 	 -144.448 	20.65 	 22.19 	 102.62 	
-44.408 	 1119.96 	 -199.592 	20.79 	 24.78 	 91.56 	
48.8 	 1126.79 	 -196.664 	-0.35 	 17.78 	 27.09 	
204.96 	 1124.35 	 -134.688 	-26.81 	 0.42 	 -47.25 	
190.32 	 1112.15 	 24.888 	-44.59 	 -0.14 	 -110.25 	
251.808 	 1050.66 	 82.472 	-30.8 	 23.94 	 -88.48 	
-485.56 	 1085.31 	 198.616 	0.49 	 48.93 	 26.18 	
-163.48 	 967.216 	 160.064 	21.14 	 49.7 	 93.31 	
-103.456 	 932.08 	 116.144 	24.29 	 44.59 	 98.84 	
124.928 	 968.68 	 103.456 	13.51 	 30.59 	 33.74 	
234.24 	 842.776 	 92.232 	8.05 	 20.37 	 -52.99 	
50.752 	 890.6 	 121.024 	9.24 	 18.69 	 -128.73 	
-94.672 	 797.392 	 83.448 	12.74 	 18.83 	 -179.13 	
-117.12 	 810.568 	 -15.616 	15.05 	 33.95 	 -172.83 	
-538.752 	 1053.1 	 -34.648 	15.61 	 57.33 	 -75.25 	
-577.792 	 955.504 	 -52.704 	10.64 	 57.54 	 9.38 	
-467.016 	 990.152 	 -33.672 	7.07 	 52.22 	 63.63 	
-352.336 	 945.256 	 -7.808 	2.03 	 45.43 	 92.68 	
-277.672 	 938.912 	 14.152 	-4.41 	 41.72 	 101.36 	
-217.648 	 948.672 	 36.6 	-5.74 	 29.75 	 93.03 	
-61.976 	 949.648 	 31.72 	-3.92 	 17.71 	 72.45 	
32.696 	 1139.97 	 11.712 	-0.7 	 8.33 	 49.7 	
-31.232 	 1065.79 	 -48.312 	3.43 	 5.95 	 24.36 	
7.32 	 1117.03 	 -117.12 	13.16 	 3.29 	 1.4 	
-17.568 	 1007.23 	 -187.392 	19.25 	 -0.07 	 -12.32 	
80.032 	 951.112 	 -250.832 	15.26 	 4.2 	 -9.1 	
30.744 	 934.52 	 -288.408 	12.53 	 10.43 	 11.48 	
-5.368 	 994.544 	 -288.896 	10.71 	 12.67 	 26.11 	
-56.608 	 1046.76 	 -273.768 	3.15 	 7.63 	 24.92 	
-9.76 	 990.152 	 -239.608 	-5.04 	 -0.7 	 25.76 	
-37.576 	 942.816 	 -191.296 	-8.33 	 -7.56 	 41.86 	
59.536 	 928.176 	 -175.68 	-10.36 	 -17.01 	 52.85 	
145.912 	 921.344 	 -167.384 	-13.79 	 -22.47 	 47.88 	
165.432 	 897.92 	 -166.408 	-16.59 	 -25.76 	 19.46 	
182.024 	 908.656 	 -204.472 	-23.38 	 -35.63 	 -40.39 	
183.488 	 917.44 	 -205.448 	-28.91 	 -49.77 	 -110.6 	
252.296 	 932.08 	 -144.448 	-40.46 	 -52.01 	 -157.71 	
305 	 1062.38 	 -89.304 	-28.56 	 -35.7 	 -66.92 	
-355.752 	 976 	 -44.896 	-5.88 	 -13.79 	 51.59 	
11.712 	 1031.14 	 -108.824 	12.67 	 -1.68 	 120.54 	
-130.296 	 1169.74 	 -101.504 	8.54 	 -2.8 	 93.8 	
82.96 	 1264.41 	 -74.176 	-16.1 	 -20.65 	 -0.14 	
322.568 	 1009.67 	 15.128 	-32.69 	 -26.88 	 -76.65 	
242.048 	 702.72 	 170.8 	-30.17 	 -21.42 	 -128.66 	
-85.888 	 1012.6 	 210.328 	-3.57 	 -2.45 	 19.39 	
-230.824 	 972.584 	 176.656 	25.97 	 3.36 	 145.53 	
-47.336 	 1099.95 	 22.448 	26.18 	 7.35 	 108.57 	
358.68 	 1050.18 	 -19.032 	9.52 	 -6.23 	 -13.02 	
228.872 	 907.68 	 69.296 	-1.89 	 -5.25 	 -97.93 	
-42.944 	 687.592 	 105.896 	5.95 	 -8.26 	 -155.75 	
3.904 	 759.328 	 46.36 	19.95 	 -12.04 	 -188.79 	
-223.504 	 786.168 	 -15.616 	24.78 	 1.19 	 -179.62 	
-609.512 	 931.592 	 -7.32 	28.07 	 8.82 	 -130.41 	
-655.872 	 973.56 	 -57.096 	25.27 	 7.49 	 -74.69 	
-701.256 	 1015.53 	 -67.344 	15.47 	 6.44 	 -10.08 	
-660.264 	 938.424 	 -42.944 	11.62 	 2.1 	 47.67 	
-598.776 	 901.336 	 -21.472 	13.65 	 -12.25 	 91.77 	
-536.312 	 872.056 	 19.52 	17.78 	 -39.13 	 125.23 	
-431.88 	 899.872 	 -24.4 	19.53 	 -73.29 	 132.02 	
-285.968 	 950.136 	 -68.808 	19.25 	 -106.68 	 107.31 	
-175.192 	 1165.34 	 -168.848 	19.6 	 -134.68 	 64.61 	
-42.456 	 1026.26 	 -202.032 	17.71 	 -149.52 	 22.54 	
34.16 	 894.504 	 -230.824 	16.66 	 -142.31 	 -8.89 	
98.088 	 832.04 	 -255.224 	20.37 	 -116.34 	 -4.83 	
44.896 	 925.736 	 -298.656 	23.17 	 -77.98 	 27.16 	
-184.464 	 958.432 	 -288.896 	21.91 	 -48.65 	 49.07 	
-219.6 	 1060.42 	 -235.216 	15.47 	 -34.02 	 51.38 	
-125.416 	 1110.2 	 -237.168 	5.04 	 -25.9 	 42.07 	
-107.848 	 978.44 	 -203.008 	-1.61 	 -18.55 	 33.39 	
-69.784 	 903.776 	 -208.864 	-1.61 	 -16.1 	 33.6 	
-16.104 	 892.552 	 -224.968 	0.21 	 -18.97 	 35.42 	
73.688 	 870.104 	 -245.464 	1.82 	 -20.3 	 34.65 	
56.12 	 944.28 	 -248.392 	-0.49 	 -16.73 	 20.86 	
20.496 	 979.416 	 -264.008 	-9.45 	 -15.05 	 -21.49 	
29.28 	 917.44 	 -264.984 	-19.32 	 -16.94 	 -80.99 	
-7.32 	 899.872 	 -222.528 	-23.1 	 -20.51 	 -131.53 	
-67.344 	 955.504 	 -232.776 	-21.21 	 -21.7 	 -123.62 	
-270.352 	 992.104 	 -242.536 	-4.41 	 -19.32 	 -6.09 	
-324.52 	 1008.21 	 -218.624 	3.22 	 -25.2 	 74.06 	
-136.64 	 1080.92 	 -207.4 	6.44 	 -16.17 	 137.27 	
-81.984 	 1022.36 	 -148.84 	2.73 	 -13.58 	 152.74 	
60.512 	 1112.15 	 -70.272 	-1.82 	 -23.87 	 90.02 	
414.312 	 964.776 	 -94.184 	-10.78 	 -38.36 	 -12.46 	
161.528 	 915.488 	 -31.232 	-18.83 	 -37.03 	 -100.59 	
30.744 	 846.68 	 5.856 	-19.88 	 -46.06 	 -159.46 	
-39.04 	 762.744 	 -23.912 	-7.07 	 -55.02 	 -135.66 	
-432.368 	 986.736 	 56.608 	18.97 	 -58.31 	 -6.51 	
-505.568 	 997.96 	 74.664 	29.19 	 -82.88 	 50.82 	
-289.384 	 1062.38 	 54.168 	26.18 	 -103.04 	 74.34 	
-239.608 	 1020.9 	 0 	20.72 	 -114.73 	 79.45 	
-70.76 	 934.52 	 -25.864 	16.73 	 -119.49 	 72.94 	
56.608 	 916.952 	 -65.88 	12.74 	 -114.03 	 53.2 	
121.512 	 956.968 	 -84.424 	7 	 -99.12 	 25.48 	
188.856 	 997.96 	 -75.152 	0.49 	 -82.25 	 1.26 	
94.184 	 959.896 	 -54.656 	-3.99 	 -66.85 	 -13.72 	
91.256 	 995.032 	 -46.36 	-2.73 	 -58.45 	 -20.58 	
47.824 	 973.072 	 -40.504 	3.78 	 -50.26 	 -10.78 	
-0.488 	 1011.14 	 -32.208 	15.05 	 -43.61 	 9.52 	
30.744 	 1089.7 	 -66.368 	23.8 	 -39.55 	 29.26 	
20.496 	 1046.76 	 -83.936 	29.19 	 -34.3 	 43.26 	
-46.848 	 1006.26 	 -154.208 	31.92 	 -34.86 	 41.44 	
-33.672 	 1003.82 	 -208.376 	31.29 	 -41.86 	 39.06 	
62.464 	 964.776 	 -236.192 	19.6 	 -43.82 	 35.07 	
14.152 	 875.472 	 -227.896 	2.59 	 -42.28 	 10.01 	
20.984 	 911.096 	 -235.704 	-15.82 	 -45.57 	 -50.12 	
-46.848 	 889.624 	 -261.568 	-26.11 	 -48.65 	 -124.46 	
-166.408 	 1034.56 	 -302.072 	-18.13 	 -49.77 	 -109.2 	
-610.976 	 1039.93 	 -216.184 	6.02 	 -56.21 	 8.05 	
-266.448 	 1065.79 	 -234.24 	15.68 	 -61.46 	 91.28 	
-241.56 	 920.856 	 -256.2 	15.54 	 -61.32 	 134.82 	
25.376 	 917.44 	 -278.648 	7.49 	 -61.81 	 104.79 	
100.528 	 921.832 	 -302.56 	-10.29 	 -71.68 	 -1.05 	
82.472 	 890.6 	 -308.416 	-23.1 	 -87.78 	 -89.11 	
-94.184 	 986.736 	 -264.984 	-27.09 	 -101.36 	 -137.76 	
-103.944 	 914.512 	 -279.136 	-19.6 	 -104.23 	 -112.28 	
-445.056 	 971.12 	 -197.64 	4.27 	 -93.87 	 -14.35 	
-385.032 	 964.776 	 -206.424 	21.7 	 -96.88 	 48.72 	
-239.12 	 955.504 	 -203.008 	28.49 	 -103.95 	 79.17 	
-145.424 	 924.272 	 -245.952 	26.6 	 -109.27 	 90.79 	
-68.32 	 928.176 	 -276.696 	23.03 	 -109.13 	 82.74 	
1.464 	 973.56 	 -267.424 	19.25 	 -107.45 	 61.39 	
95.648 	 1019.92 	 -212.768 	11.2 	 -101.57 	 42.35 	
131.76 	 957.944 	 -170.8 	3.36 	 -92.19 	 28.49 	
81.496 	 912.56 	 -133.712 	3.15 	 -87.08 	 21.28 	
64.904 	 949.16 	 -121.024 	4.69 	 -84.98 	 18.83 	
74.176 	 998.448 	 -96.136 	2.66 	 -85.19 	 14.07 	
61.488 	 1005.28 	 -92.232 	-3.43 	 -80.29 	 8.19 	
49.776 	 1004.3 	 -53.68 	-9.59 	 -76.58 	 -3.85 	
41.968 	 1009.18 	 -45.872 	-15.05 	 -72.17 	 -14.77 	
0.976 	 984.296 	 -29.28 	-15.96 	 -64.61 	 -19.04 	
-53.68 	 983.808 	 -4.88 	-11.41 	 -57.82 	 -22.19 	
-75.64 	 986.736 	 2.928 	-7.56 	 -52.15 	 -26.18 	
-89.304 	 971.608 	 -10.736 	-1.33 	 -46.06 	 -11.83 	
-189.344 	 1040.9 	 -6.832 	11.48 	 -43.19 	 43.26 	
-142.008 	 977.952 	 -20.496 	20.02 	 -51.73 	 99.89 	
79.056 	 1010.65 	 -42.944 	17.64 	 -58.45 	 100.52 	
265.472 	 956.968 	 -111.752 	3.92 	 -53.34 	 30.66 	
304.024 	 958.432 	 -102.968 	-4.97 	 -43.61 	 -36.89 	
30.744 	 1017.97 	 -55.632 	-11.76 	 -45.22 	 -91.56 	
-56.608 	 919.88 	 -54.656 	-18.83 	 -58.59 	 -128.38 	
-160.064 	 1046.27 	 -35.136 	2.17 	 -51.17 	 -32.48 	
-289.872 	 971.608 	 -17.568 	24.08 	 -39.97 	 64.96 	
-28.792 	 1013.09 	 -23.912 	30.8 	 -30.87 	 115.29 	
96.136 	 971.608 	 -86.376 	19.88 	 -33.32 	 79.73 	
313.784 	 901.824 	 -107.848 	3.08 	 -36.05 	 -7.28 	
222.04 	 1028.22 	 -109.312 	-9.17 	 -27.3 	 -84.21 	
10.736 	 930.616 	 -91.744 	-18.13 	 -29.47 	 -137.2 	
-290.36 	 1020.41 	 -85.888 	2.66 	 -23.8 	 -47.11 	
-497.76 	 1023.34 	 -78.08 	23.87 	 -15.89 	 68.53 	
-147.864 	 1036.02 	 -101.992 	32.2 	 -11.55 	 124.32 	
75.64 	 1011.14 	 -174.704 	23.38 	 -5.6 	 96.81 	
139.568 	 997.96 	 -171.776 	8.54 	 -1.26 	 27.02 	
168.848 	 906.704 	 -222.528 	-1.33 	 -1.75 	 -35.21 	
-32.208 	 903.288 	 -205.448 	-7.63 	 -7.14 	 -68.25 	
-128.344 	 1009.67 	 -248.392 	-8.12 	 -6.16 	 -24.29 	
-231.8 	 986.736 	 -197.152 	-3.22 	 -3.29 	 22.68 	
-120.048 	 996.496 	 -210.816 	-0.49 	 1.82 	 32.13 	
-82.96 	 975.024 	 -209.84 	1.05 	 3.15 	 21.7 	
-63.928 	 933.056 	 -225.944 	0.84 	 -2.24 	 11.27 	
-16.592 	 932.08 	 -250.344 	-1.26 	 -9.87 	 3.22 	
11.712 	 934.52 	 -263.032 	-5.67 	 -12.74 	 -3.78 	
16.104 	 940.864 	 -260.104 	-9.31 	 -11.34 	 -11.41 	
2.928 	 936.472 	 -236.192 	-11.9 	 -7.7 	 -14.28 	
-41.48 	 932.08 	 -232.776 	-12.74 	 -4.48 	 -12.18 	
-42.944 	 905.728 	 -229.848 	-11.62 	 0.28 	 -4.41 	
-94.672 	 946.72 	 -209.84 	-7.7 	 1.82 	 6.58 	
-74.664 	 1007.23 	 -210.816 	-4.76 	 -3.29 	 10.78 	
-89.304 	 1027.73 	 -214.72 	-3.85 	 -7.91 	 12.6 	
-45.872 	 1114.59 	 -170.312 	-5.18 	 -14.21 	 10.64 	
-21.96 	 1207.8 	 -136.152 	-9.03 	 -15.82 	 13.02 	
-8.784 	 1072.62 	 -66.856 	-9.03 	 -17.22 	 20.58 	
-34.648 	 927.688 	 -11.712 	-1.4 	 -19.53 	 51.31 	
-183 	 885.72 	 42.944 	11.83 	 -34.16 	 84.77 	
6.832 	 828.136 	 -17.08 	17.15 	 -54.95 	 62.16 	
234.728 	 834.48 	 -98.088 	17.71 	 -72.45 	 2.59 	
150.304 	 1018.46 	 -113.704 	7.28 	 -74.48 	 -47.53 	
-33.184 	 1136.55 	 -90.768 	-7 	 -89.6 	 -91.14 	
-33.184 	 996.496 	 -56.608 	-11.9 	 -105.42 	 -102.69 	
-137.128 	 984.296 	 -30.256 	2.94 	 -80.36 	 -17.57 	
-171.776 	 919.88 	 -54.656 	22.61 	 -49.56 	 68.81 	
57.584 	 946.232 	 -106.384 	27.37 	 -35.35 	 122.57 	
214.232 	 982.344 	 -129.32 	14.77 	 -25.27 	 97.93 	
356.24 	 954.04 	 -154.696 	-4.06 	 -18.76 	 7.91 	
313.784 	 986.248 	 -168.36 	-18.34 	 -11.2 	 -66.29 	
40.504 	 971.608 	 -100.04 	-32.62 	 -17.78 	 -123.83 	
81.008 	 808.616 	 -75.64 	-32.62 	 -22.4 	 -122.99 	
-330.864 	 1048.22 	 -7.32 	1.19 	 0.77 	 5.11 	
-205.936 	 1024.8 	 -13.664 	26.32 	 8.96 	 92.75 	
38.064 	 1071.16 	 -33.672 	26.32 	 5.88 	 105.56 	
241.56 	 919.392 	 -69.296 	11.06 	 3.99 	 20.44 	
370.88 	 893.528 	 -144.448 	2.66 	 9.45 	 -65.24 	
0.488 	 884.744 	 -163.48 	-6.23 	 16.87 	 -110.6 	
-55.144 	 1150.7 	 -227.408 	1.75 	 40.25 	 -31.78 	
-187.88 	 1150.22 	 -200.08 	9.73 	 71.4 	 42.07 	
112.24 	 1067.26 	 -201.056 	7.77 	 93.66 	 52.01 	
168.36 	 1028.22 	 -234.728 	1.96 	 118.44 	 41.86 	
36.112 	 948.184 	 -203.984 	0.56 	 117.25 	 17.85 	
23.424 	 890.6 	 -187.88 	-2.17 	 104.44 	 -1.75 	
-7.32 	 928.176 	 -172.752 	-6.93 	 78.89 	 -12.88 	
-29.28 	 948.672 	 -167.384 	-11.76 	 52.29 	 -16.03 	
-12.2 	 978.44 	 -154.208 	-10.36 	 34.72 	 -13.02 	
27.328 	 985.76 	 -166.896 	-8.33 	 34.86 	 -15.54 	
-71.736 	 978.44 	 -148.352 	-2.17 	 35.35 	 -29.33 	
-43.92 	 972.096 	 -150.304 	1.05 	 32.76 	 -36.68 	
-36.6 	 941.352 	 -164.456 	2.24 	 34.02 	 -23.52 	
-30.744 	 975.024 	 -206.912 	5.74 	 33.53 	 9.59 	
53.192 	 974.048 	 -222.528 	5.88 	 39.2 	 37.66 	
119.56 	 996.008 	 -244 	8.61 	 61.11 	 51.24 	
112.24 	 1050.18 	 -250.832 	4.55 	 75.32 	 21.28 	
-54.656 	 978.44 	 -168.36 	-3.92 	 67.62 	 -25.27 	
-5.368 	 966.24 	 -130.296 	-11.97 	 34.93 	 -75.81 	
39.04 	 973.072 	 -123.464 	-15.68 	 5.53 	 -113.33 	
113.216 	 975.512 	 -146.4 	-7.91 	 5.81 	 -72.87 	
-296.704 	 1009.18 	 -120.536 	0.28 	 17.85 	 35.84 	
-48.312 	 1023.34 	 -138.592 	13.44 	 24.85 	 119.63 	
-101.504 	 991.616 	 -129.808 	10.78 	 21.14 	 86.94 	
266.936 	 938.912 	 -157.136 	-8.61 	 -5.25 	 -18.62 	
322.568 	 959.408 	 -119.56 	-21.63 	 -15.75 	 -95.34 	
366.976 	 763.232 	 -142.008 	-23.45 	 -4.55 	 -132.93 	
-294.752 	 1363.47 	 -96.136 	-14 	 32.76 	 -12.6 	
-260.592 	 1068.72 	 -101.992 	0.07 	 37.73 	 88.76 	
23.912 	 937.936 	 -116.144 	6.02 	 44.03 	 122.29 	
69.784 	 935.496 	 -97.112 	-3.99 	 36.33 	 68.18 	
263.032 	 950.624 	 -98.088 	-16.73 	 19.95 	 -1.89 	
208.376 	 985.272 	 -43.432 	-24.99 	 15.33 	 -56.35 	
76.616 	 937.448 	 0.488 	-27.09 	 13.37 	 -107.66 	
-3.416 	 889.624 	 23.424 	-17.01 	 19.18 	 -101.5 	
-333.792 	 1069.7 	 20.008 	-3.92 	 38.43 	 10.85 	
-281.576 	 921.832 	 -7.32 	9.66 	 35.21 	 65.87 	
-165.432 	 995.032 	 -1.464 	6.93 	 23.8 	 52.43 	
26.84 	 1004.79 	 13.664 	-7.14 	 7.21 	 12.95 	
112.24 	 1008.7 	 60.512 	-16.1 	 0.56 	 -24.85 	
72.712 	 918.416 	 92.232 	-11.62 	 9.31 	 -46.97 	
-197.64 	 988.2 	 110.776 	2.45 	 19.53 	 -28.91 	
-163.48 	 999.912 	 38.064 	9.59 	 25.48 	 -5.46 	
-123.464 	 1024.31 	 36.6 	9.31 	 28.7 	 7.14 	
-65.392 	 1007.72 	 41.48 	3.85 	 29.82 	 8.82 	
15.616 	 1011.62 	 48.312 	-0.91 	 31.43 	 3.64 	
-17.568 	 944.28 	 81.496 	-0.35 	 37.73 	 -1.82 	
24.4 	 959.896 	 63.928 	0.77 	 45.22 	 -8.47 	
-0.976 	 1059.45 	 55.632 	-1.4 	 54.67 	 -4.69 	
-16.592 	 1045.3 	 52.216 	-5.67 	 62.23 	 -2.31 	
-121.512 	 991.128 	 63.44 	-2.52 	 58.73 	 -3.15 	
-131.272 	 989.176 	 62.952 	-0.42 	 49.14 	 -4.69 	
-95.16 	 988.2 	 52.216 	-0.42 	 37.59 	 -7.35 	
-54.168 	 1024.31 	 41.968 	-1.12 	 31.92 	 0.84 	
-39.04 	 1062.86 	 4.392 	3.71 	 34.09 	 45.92 	
-84.912 	 966.728 	 -1.952 	7.21 	 42.07 	 77.91 	
20.984 	 1012.11 	 -15.128 	5.74 	 40.18 	 48.93 	
100.04 	 1015.53 	 -9.76 	-9.52 	 34.58 	 -8.26 	
172.264 	 1015.04 	 -14.64 	-21 	 30.45 	 -62.37 	
171.776 	 843.264 	 2.44 	-32.41 	 34.93 	 -108.15 	
-89.792 	 1084.82 	 44.408 	-20.58 	 49.56 	 -26.53 	
-395.28 	 897.92 	 76.128 	6.79 	 47.11 	 75.04 	
-67.832 	 996.008 	 -2.44 	29.19 	 53.55 	 118.09 	
21.472 	 1114.1 	 -40.504 	24.08 	 43.26 	 67.27 	
285.968 	 927.688 	 -68.808 	-0.63 	 21.98 	 -1.75 	
309.392 	 947.208 	 0.488 	-18.13 	 13.3 	 -67.41 	
324.032 	 802.76 	 15.616 	-17.36 	 21.21 	 -129.71 	
-80.52 	 1072.62 	 -10.736 	-1.54 	 42.7 	 -52.5 	
-514.84 	 1130.7 	 30.744 	5.25 	 37.1 	 54.74 	
-68.32 	 1059.45 	 -3.904 	15.82 	 32.69 	 104.93 	
-37.088 	 1005.77 	 -38.064 	10.01 	 29.4 	 78.33 	
301.096 	 983.32 	 -69.784 	-7 	 17.08 	 -0.98 	
168.848 	 914.512 	 -22.448 	-15.61 	 14.91 	 -68.25 	
126.88 	 903.776 	 -13.176 	-19.25 	 15.61 	 -82.46 	
-366.488 	 1051.64 	 48.8 	-6.58 	 16.31 	 -7.77 	
-199.592 	 1003.33 	 -16.592 	3.01 	 8.47 	 26.39 	
-47.336 	 1008.7 	 -34.648 	6.3 	 9.17 	 19.88 	
52.704 	 965.264 	 -25.376 	2.03 	 15.19 	 -9.52 	
205.936 	 945.256 	 12.2 	2.8 	 19.53 	 -15.82 	
-43.432 	 946.232 	 46.36 	8.61 	 17.71 	 7.07 	
-111.264 	 905.24 	 34.648 	21.21 	 11.2 	 12.39 	
-60.024 	 1008.21 	 -7.808 	29.61 	 -0.35 	 3.15 	
-108.336 	 1017.97 	 -2.44 	36.19 	 -18.55 	 -1.26 	
12.688 	 1013.09 	 -60.512 	36.12 	 -28.56 	 -1.33 	
-126.88 	 1042.86 	 -48.8 	33.53 	 -47.04 	 -0.14 	
-83.936 	 1041.39 	 -42.944 	24.5 	 -70.35 	 0.49 	
238.632 	 964.776 	 -114.192 	8.54 	 -75.46 	 -2.03 	
433.344 	 928.664 	 -109.8 	-3.5 	 -30.94 	 5.25 	
265.472 	 906.704 	 -113.216 	-8.05 	 29.19 	 0.07 	
33.672 	 995.52 	 -64.904 	-5.39 	 61.95 	 -6.16 	
-334.28 	 1009.67 	 15.128 	-3.22 	 43.61 	 -1.89 	
-449.936 	 1034.07 	 81.984 	3.78 	 -28.21 	 -1.89 	
-123.952 	 993.568 	 22.936 	11.55 	 -93.31 	 9.17 	
221.552 	 999.912 	 -49.288 	17.36 	 -108.71 	 25.48 	
296.216 	 1018.46 	 -78.568 	21.77 	 -70.42 	 66.22 	
-29.768 	 1051.64 	 -14.64 	25.97 	 -39.13 	 133.49 	
106.872 	 1074.09 	 -24.4 	9.03 	 -46.69 	 83.51 	
657.336 	 817.4 	 -97.112 	-4.76 	 -52.78 	 -33.53 	
275.232 	 965.752 	 -13.176 	-14.14 	 -34.16 	 -103.25 	
198.616 	 892.064 	 -24.4 	-4.97 	 -27.23 	 -62.65 	
-79.056 	 1004.79 	 -32.696 	18.27 	 -4.69 	 33.46 	
120.048 	 1015.53 	 -33.672 	31.43 	 3.99 	 52.15 	
283.04 	 969.656 	 -71.736 	30.31 	 8.05 	 6.23 	
378.2 	 902.8 	 -116.144 	29.05 	 10.15 	 -41.3 	
354.776 	 839.36 	 -171.776 	32.83 	 19.81 	 -50.82 	
-159.576 	 944.768 	 -131.272 	37.59 	 24.85 	 2.17 	
-121.024 	 873.032 	 -120.048 	49.91 	 8.61 	 22.82 	
74.176 	 920.856 	 -188.856 	67.76 	 -18.9 	 10.36 	
121.512 	 894.992 	 -311.344 	89.46 	 -47.04 	 -18.48 	
-74.664 	 1188.77 	 -586.088 	81.69 	 -80.36 	 5.04 	
167.384 	 1381.04 	 -855.464 	17.43 	 -94.92 	 55.72 	
184.464 	 999.912 	 -662.216 	-40.67 	 -27.58 	 55.93 	
81.496 	 823.744 	 -427.488 	-64.33 	 -1.4 	 13.86 	
56.608 	 796.416 	 -438.712 	-62.23 	 -40.88 	 -60.76 	
162.992 	 780.312 	 -439.2 	-51.45 	 -85.4 	 -116.76 	
111.752 	 956.48 	 -381.128 	-38.08 	 -44.45 	 -24.22 	
-547.048 	 910.12 	 -282.064 	-22.19 	 -2.38 	 67.34 	
-193.736 	 809.104 	 -278.16 	-13.16 	 0.07 	 93.52 	
-98.576 	 839.848 	 -275.72 	-7 	 -24.15 	 23.59 	
305.488 	 931.104 	 -405.528 	-10.85 	 -45.5 	 -55.02 	
196.664 	 842.776 	 -390.4 	-15.26 	 -44.1 	 -63.84 	
-184.464 	 941.84 	 -324.52 	-13.93 	 -17.92 	 5.46 	
-151.768 	 895.968 	 -302.072 	-5.6 	 -14.63 	 40.18 	
-77.104 	 972.584 	 -304.512 	-4.55 	 -15.61 	 33.81 	
31.232 	 924.272 	 -325.008 	-7.56 	 -25.76 	 10.57 	
112.728 	 915 	 -335.744 	-9.45 	 -35.42 	 0.7 	
26.84 	 897.92 	 -322.568 	-11.83 	 -41.79 	 1.19 	
0.488 	 933.056 	 -327.448 	-14.49 	 -47.18 	 3.71 	
-16.592 	 990.64 	 -285.48 	-17.92 	 -53.34 	 10.57 	
31.232 	 1008.21 	 -267.912 	-22.89 	 -53.41 	 17.15 	
145.912 	 1089.7 	 -259.616 	-21.21 	 -47.11 	 19.95 	
177.632 	 1215.12 	 -228.384 	-16.66 	 -31.01 	 20.16 	
301.584 	 1075.55 	 -146.4 	-17.57 	 -10.92 	 22.19 	
150.304 	 939.888 	 -62.464 	-19.95 	 14.84 	 25.27 	
27.816 	 881.816 	 -1.464 	-15.75 	 21.21 	 17.08 	
-8.296 	 860.832 	 12.688 	-14 	 16.38 	 13.09 	
72.224 	 970.632 	 7.32 	-15.54 	 10.57 	 10.99 	
-49.288 	 1002.35 	 37.576 	-11.48 	 9.31 	 4.48 	
26.352 	 1067.26 	 22.448 	-13.86 	 7.28 	 -12.6 	
-11.712 	 964.288 	 30.744 	-12.81 	 7.91 	 -27.86 	
-14.152 	 894.504 	 16.104 	-3.5 	 12.46 	 -24.71 	
-63.44 	 914.512 	 14.64 	1.54 	 12.18 	 -18.97 	
27.328 	 990.64 	 2.928 	4.2 	 10.57 	 -19.88 	
15.128 	 930.128 	 -4.88 	7.84 	 13.93 	 -19.32 	
34.648 	 998.936 	 17.568 	10.78 	 19.25 	 -10.57 	
-37.088 	 939.888 	 38.064 	14.14 	 21.63 	 0.07 	
31.232 	 970.632 	 40.016 	14.35 	 18.2 	 4.97 	
-51.24 	 900.36 	 34.16 	12.46 	 9.66 	 3.92 	
0 	 943.792 	 21.96 	15.26 	 -7.98 	 2.45 	
38.552 	 982.344 	 -11.224 	17.22 	 -24.29 	 7.42 	
-71.248 	 1081.9 	 -28.792 	22.12 	 -33.74 	 40.46 	
-22.448 	 1271.73 	 -127.368 	25.9 	 -38.78 	 88.13 	
140.056 	 1195.11 	 -191.784 	19.39 	 -37.94 	 109.27 	
228.872 	 1069.7 	 -291.824 	5.04 	 -41.86 	 48.86 	
362.584 	 1028.7 	 -331.352 	-2.17 	 -42 	 -22.33 	
259.616 	 865.712 	 -349.896 	-16.38 	 -37.94 	 -76.79 	
173.728 	 815.448 	 -305.976 	-14.49 	 -22.68 	 -43.96 	
-519.72 	 1068.23 	 -182.512 	2.24 	 -10.15 	 28.21 	
-187.88 	 1061.4 	 -152.256 	7.14 	 -24.78 	 54.32 	
101.992 	 895.968 	 -184.464 	-3.78 	 -27.72 	 26.53 	
369.904 	 899.872 	 -281.088 	-19.25 	 -41.51 	 -45.5 	
355.264 	 834.968 	 -264.984 	-35.77 	 -55.44 	 -112.28 	
219.112 	 669.048 	 -213.256 	-26.74 	 -36.05 	 -61.18 	
-650.992 	 1022.85 	 -114.68 	-6.16 	 -14.7 	 22.82 	
-41.48 	 1010.16 	 -183.976 	6.44 	 -16.03 	 91.63 	
-71.248 	 902.312 	 -159.088 	12.46 	 -15.47 	 111.09 	
273.768 	 1065.3 	 -214.72 	-0.07 	 -19.11 	 57.4 	
285.968 	 1002.35 	 -220.088 	-19.74 	 -33.6 	 -31.08 	
289.872 	 1120.94 	 -191.296 	-32.55 	 -42.07 	 -105.07 	
176.656 	 788.12 	 -114.192 	-29.19 	 -38.92 	 -120.33 	
-398.696 	 1380.06 	 24.4 	8.12 	 -23.52 	 29.75 	
-86.376 	 1034.56 	 2.928 	26.81 	 -35.07 	 103.39 	
65.88 	 882.792 	 65.392 	20.3 	 -41.93 	 94.15 	
268.888 	 925.248 	 7.808 	13.72 	 -55.86 	 42.21 	
162.992 	 996.496 	 -20.496 	8.68 	 -78.75 	 -20.93 	
48.312 	 964.288 	 -59.048 	3.01 	 -99.19 	 -57.89 	
-133.224 	 856.44 	 -19.52 	7.7 	 -121.45 	 -56 	
-216.184 	 859.856 	 -50.264 	17.29 	 -142.45 	 -40.6 	
-142.008 	 935.008 	 -95.16 	20.93 	 -165.62 	 -29.54 	
56.608 	 936.96 	 -144.936 	17.43 	 -165.69 	 -23.1 	
29.768 	 979.416 	 -115.656 	16.24 	 -150.29 	 -16.03 	
128.344 	 929.152 	 -115.168 	13.79 	 -128.45 	 -1.54 	
2.44 	 911.584 	 -84.424 	17.01 	 -99.75 	 7.35 	
23.424 	 1118.01 	 -132.736 	23.87 	 -82.74 	 6.16 	
46.848 	 1057.5 	 -157.136 	23.66 	 -66.92 	 -0.98 	
-64.416 	 1095.56 	 -204.472 	20.37 	 -48.44 	 -16.31 	
-226.92 	 1171.2 	 -229.36 	18.83 	 -36.12 	 -27.86 	
-405.528 	 1022.85 	 -240.584 	18.48 	 -31.64 	 -17.85 	
-511.424 	 907.192 	 -253.76 	20.58 	 -24.5 	 19.81 	
-391.376 	 997.472 	 -318.664 	23.31 	 -23.45 	 62.79 	
-277.672 	 1075.55 	 -343.552 	13.16 	 -21.21 	 82.32 	
-155.184 	 1116.06 	 -347.456 	-4.9 	 -18.62 	 93.94 	
-212.768 	 1030.17 	 -247.416 	-24.92 	 -17.08 	 88.27 	
-153.232 	 811.544 	 -163.48 	-39.83 	 -35 	 52.29 	
19.52 	 754.448 	 -138.104 	-36.96 	 -61.53 	 6.93 	
109.312 	 792.024 	 -171.776 	-29.96 	 -72.17 	 -27.72 	
49.776 	 815.448 	 -170.8 	-24.08 	 -71.82 	 -61.67 	
54.168 	 896.944 	 -188.368 	-8.96 	 -61.74 	 -22.75 	
-217.648 	 872.056 	 -156.648 	10.22 	 -54.04 	 55.37 	
-151.768 	 1012.6 	 -177.144 	25.62 	 -61.11 	 79.17 	
39.528 	 1065.79 	 -246.44 	13.72 	 -75.11 	 35.98 	
150.304 	 996.008 	 -317.2 	-6.72 	 -93.94 	 -43.75 	
354.776 	 954.528 	 -238.144 	-11.55 	 -81.69 	 -28.42 	
-161.04 	 1175.1 	 -133.224 	22.82 	 -35.56 	 106.54 	
-149.816 	 1176.57 	 -100.04 	32.48 	 -28 	 144.97 	
183.976 	 997.96 	 -91.744 	11.2 	 -47.81 	 74.48 	
434.808 	 761.28 	 -162.504 	-3.22 	 -76.58 	 -13.51 	
350.384 	 996.008 	 -180.56 	-15.61 	 -94.85 	 -76.72 	
213.256 	 991.128 	 -83.448 	-20.86 	 -82.74 	 -50.12 	
-193.736 	 1046.76 	 35.136 	-5.6 	 -61.18 	 40.74 	
35.624 	 935.008 	 27.328 	7.63 	 -56.84 	 81.97 	
223.992 	 884.256 	 -43.92 	7.28 	 -61.46 	 27.37 	
302.072 	 914.512 	 -138.592 	-2.52 	 -69.16 	 -45.71 	
255.224 	 855.464 	 -157.136 	-9.8 	 -82.32 	 -70.91 	
10.248 	 913.048 	 -77.592 	-1.75 	 -81.34 	 -5.04 	
77.104 	 903.288 	 -18.056 	6.09 	 -78.47 	 35.07 	
169.824 	 847.168 	 -26.352 	13.93 	 -63.7 	 41.3 	
296.216 	 915 	 -88.328 	27.23 	 -49.35 	 27.93 	
209.352 	 998.936 	 -176.656 	42.63 	 -41.09 	 6.37 	
165.92 	 1057.01 	 -254.736 	57.96 	 -33.74 	 -13.02 	
-71.736 	 1100.44 	 -336.72 	65.03 	 -33.53 	 -18.48 	
-292.8 	 1433.74 	 -413.824 	35.28 	 -42.84 	 1.96 	
-122.488 	 1259.53 	 -506.056 	-30.66 	 -51.52 	 34.72 	
-43.92 	 893.04 	 -417.24 	-63.49 	 -58.59 	 34.93 	
140.544 	 797.392 	 -263.52 	-46.55 	 -48.93 	 14.35 	
24.4 	 793 	 -143.472 	-19.74 	 -34.51 	 -6.16 	
-151.768 	 905.728 	 -122.488 	1.75 	 -31.43 	 -10.78 	
-139.568 	 870.592 	 -231.312 	8.19 	 -39.48 	 -1.26 	
-62.464 	 908.656 	 -263.52 	5.88 	 -43.54 	 8.47 	
-61.488 	 857.904 	 -262.056 	1.75 	 -44.94 	 10.92 	
5.368 	 896.456 	 -309.392 	-1.96 	 -40.74 	 7.28 	
-2.44 	 925.248 	 -335.256 	-4.97 	 -30.73 	 6.3 	
-25.376 	 955.504 	 -365.512 	-6.23 	 -23.31 	 11.48 	
26.352 	 929.152 	 -401.624 	-5.18 	 -16.66 	 18.48 	
128.344 	 928.664 	 -472.384 	4.27 	 -8.4 	 86.87 	
-132.736 	 889.136 	 -380.152 	3.99 	 -0.98 	 132.65 	
-195.688 	 835.456 	 -356.24 	-6.51 	 -22.05 	 55.09 	
383.08 	 694.912 	 -430.904 	-17.01 	 -58.38 	 -12.25 	
226.432 	 868.152 	 -344.528 	-26.81 	 -65.31 	 -63 	
457.256 	 1337.12 	 -350.872 	-14.77 	 -65.73 	 -58.66 	
40.016 	 858.392 	 -79.056 	-10.5 	 -23.17 	 23.1 	
-68.808 	 1338.1 	 86.864 	-11.62 	 -0.21 	 59.22 	
23.912 	 1188.28 	 125.904 	-21.42 	 -14.91 	 9.31 	
354.288 	 848.144 	 46.36 	-20.23 	 -21.63 	 -47.32 	
113.704 	 923.784 	 43.432 	-14 	 -19.25 	 -58.52 	
-122.976 	 904.264 	 42.944 	-14.49 	 -20.72 	 -18.97 	
-9.272 	 888.16 	 62.952 	-13.09 	 -18.48 	 2.59 	
0 	 884.256 	 85.4 	-14.98 	 -15.75 	 -3.29 	
-3.416 	 916.464 	 87.352 	-19.74 	 -18.55 	 -19.04 	
31.232 	 938.912 	 122.488 	-25.76 	 -20.16 	 -32.41 	
-5.856 	 852.536 	 114.68 	-23.87 	 -13.02 	 -47.81 	
-95.16 	 916.464 	 95.648 	-16.03 	 -5.88 	 -52.78 	
-218.624 	 856.44 	 86.864 	-7.21 	 -0.35 	 -50.4 	
-155.184 	 801.296 	 40.016 	-1.05 	 4.62 	 -41.86 	
-261.08 	 882.792 	 29.768 	1.75 	 6.16 	 -33.74 	
-309.88 	 815.448 	 -38.064 	2.59 	 6.23 	 -33.04 	
-414.312 	 928.664 	 -34.648 	6.65 	 4.9 	 -16.94 	
-396.744 	 884.744 	 -69.296 	6.79 	 0.77 	 4.06 	
-338.184 	 922.32 	 -101.992 	12.11 	 0.63 	 29.33 	
-294.752 	 976.976 	 -126.392 	15.4 	 3.15 	 65.8 	
-295.728 	 1008.7 	 -158.112 	9.38 	 -0.07 	 64.89 	
-186.904 	 1036.51 	 -185.44 	-3.92 	 -9.59 	 2.59 	
-42.456 	 837.408 	 -162.992 	-9.31 	 -8.68 	 -47.53 	
-482.632 	 1017.97 	 -130.296 	-3.01 	 2.31 	 -15.54 	
-500.2 	 1120.94 	 -162.504 	4.69 	 -2.24 	 12.67 	
-394.304 	 1102.39 	 -185.928 	1.54 	 -2.87 	 18.9 	
-267.912 	 1162.9 	 -184.464 	-1.12 	 -2.03 	 12.32 	
-176.656 	 1242.94 	 -155.672 	-6.65 	 0.98 	 -12.11 	
-57.584 	 1194.14 	 -90.768 	-9.87 	 3.85 	 -36.4 	
-83.936 	 1269.29 	 -51.24 	-9.17 	 7.84 	 -32.13 	
-70.76 	 1176.57 	 -43.432 	-10.22 	 4.13 	 -31.08 	
-60.024 	 1007.72 	 -40.504 	-2.24 	 3.71 	 -9.03 	
-102.48 	 932.08 	 -36.112 	5.95 	 -0.91 	 -0.14 	
-105.896 	 856.928 	 -53.68 	10.22 	 -6.23 	 -2.38 	
-84.912 	 919.88 	 -60.512 	10.5 	 -15.89 	 1.19 	
15.128 	 960.384 	 -54.168 	9.52 	 -23.94 	 15.68 	
85.888 	 1032.61 	 -72.712 	13.44 	 -18.27 	 61.39 	
-161.04 	 1138.5 	 -35.624 	12.04 	 -8.12 	 73.78 	
-5.856 	 1045.3 	 -45.872 	3.99 	 -8.05 	 19.74 	
88.328 	 997.472 	 -89.792 	-1.89 	 -12.18 	 -35.98 	
86.864 	 879.376 	 -120.536 	-6.72 	 -14.7 	 -70.56 	
-503.128 	 959.896 	 -49.288 	5.32 	 -6.37 	 24.64 	
-378.688 	 1027.24 	 -69.296 	19.11 	 -3.64 	 100.45 	
-23.912 	 1004.79 	 -113.704 	17.08 	 -5.39 	 64.96 	
228.872 	 924.76 	 -180.56 	9.38 	 -12.6 	 -12.25 	
6.344 	 980.392 	 -154.696 	-1.26 	 -21.07 	 -67.55 	
-131.76 	 977.464 	 -126.88 	-7.91 	 -28.63 	 -56.63 	
-372.832 	 979.904 	 -62.952 	-3.78 	 -32.34 	 -10.29 	
-201.056 	 984.784 	 -44.896 	0.21 	 -26.6 	 9.17 	
-42.456 	 962.824 	 -93.208 	5.25 	 -9.24 	 6.93 	
-66.368 	 988.688 	 -133.712 	5.95 	 3.64 	 -3.57 	
-122 	 973.56 	 -139.568 	3.15 	 2.8 	 -11.34 	
-161.04 	 960.872 	 -128.344 	-2.38 	 -1.19 	 -15.12 	
-211.304 	 933.056 	 -107.848 	-4.27 	 -2.38 	 -16.31 	
-211.792 	 971.12 	 -113.704 	-2.03 	 -3.08 	 -13.3 	
-213.744 	 959.408 	 -131.272 	-0.63 	 -0.77 	 -11.55 	
-198.616 	 981.856 	 -120.536 	-0.28 	 1.05 	 -13.09 	
-244 	 985.272 	 -118.096 	0.07 	 1.75 	 -10.22 	
-288.408 	 966.24 	 -118.096 	0.77 	 -0.63 	 -7.98 	
-242.048 	 975.024 	 -117.12 	2.03 	 -5.11 	 -6.51 	
-234.728 	 970.144 	 -128.344 	1.75 	 -5.18 	 0.49 	
-215.696 	 980.392 	 -124.44 	1.26 	 -5.46 	 2.24 	
-212.28 	 950.136 	 -131.272 	0.84 	 -3.01 	 2.52 	
-206.424 	 975.512 	 -132.736 	0.91 	 -2.45 	 2.59 	
-210.816 	 979.904 	 -128.832 	-0.07 	 -2.87 	 1.4 	
-208.864 	 971.12 	 -124.44 	-1.47 	 -3.01 	 1.12 	
-226.432 	 973.56 	 -117.608 	-3.08 	 -3.85 	 1.12 	
-208.864 	 966.728 	 -106.872 	-3.43 	 -3.78 	 0.98 	
-227.408 	 954.528 	 -95.16 	-2.52 	 -2.66 	 2.52 	
-211.304 	 964.288 	 -96.136 	-1.33 	 -3.15 	 2.8 	
-194.224 	 960.872 	 -93.696 	-0.84 	 -2.31 	 2.03 	
-221.064 	 959.896 	 -88.328 	0.21 	 -1.4 	 3.01 	
-208.864 	 967.216 	 -88.328 	0.56 	 -1.68 	 1.82 	
-192.76 	 987.224 	 -91.256 	0.21 	 -1.12 	 -0.07 	
-253.76 	 973.56 	 -83.448 	0 	 0.77 	 1.54 	
-236.68 	 980.392 	 -84.912 	1.19 	 -0.42 	 -0.56 	
-244.976 	 980.392 	 -112.24 	3.01 	 0.91 	 2.31 	
-251.32 	 1011.14 	 -141.52 	2.87 	 1.05 	 3.08 	
